TITLE	cm9
DATA TYPE	
ORIGIN	JASCO
OWNER	
DATE	16/02/05
TIME	13:30:04
SPECTROMETER/DATA SYSTEM	
LOCALE	1033
RESOLUTION	
DELTAX	-0.5
XUNITS	NANOMETERS
YUNITS	CD [mdeg]
Y2UNITS	HT [V]
Y3UNITS	ABSORBANCE
FIRSTX	  750.0000
LASTX	  350.0000
NPOINTS	     801
FIRSTY	    -5.53622
MAXY	    36.38211
MINY	   -18.34235
XYDATA
750.0000	-5.53622	303.677	1.29063
749.5000	-5.45122	303.389	1.28759
749.0000	-5.46601	303.042	1.28393
748.5000	-5.45589	302.643	1.2797
748.0000	-5.52137	302.186	1.27486
747.5000	-5.68187	301.699	1.2697
747.0000	-5.66963	301.173	1.26412
746.5000	-5.62238	300.66	1.25867
746.0000	-5.67059	300.153	1.25328
745.5000	-5.63266	299.692	1.24837
745.0000	-5.62867	299.27	1.24388
744.5000	-5.54126	298.902	1.23995
744.0000	-5.50456	298.585	1.23657
743.5000	-5.35713	298.341	1.23396
743.0000	-5.38362	298.132	1.23173
742.5000	-5.35414	297.949	1.22977
742.0000	-5.40934	297.769	1.22784
741.5000	-5.2702	297.575	1.22576
741.0000	-5.31877	297.328	1.22312
740.5000	-5.22899	296.992	1.21952
740.0000	-5.31634	296.56	1.21489
739.5000	-5.17634	296.027	1.20918
739.0000	-5.03016	295.371	1.20212
738.5000	-4.9552	294.611	1.19394
738.0000	-4.85137	293.796	1.18515
737.5000	-4.80647	292.937	1.17588
737.0000	-4.93299	292.227	1.16819
736.5000	-4.92414	291.672	1.16219
736.0000	-5.02382	291.304	1.15819
735.5000	-5.02204	291.147	1.15649
735.0000	-4.98499	291.18	1.15684
734.5000	-4.94412	291.306	1.15821
734.0000	-4.88692	291.549	1.16085
733.5000	-4.60414	291.837	1.16397
733.0000	-4.53977	292.102	1.16684
732.5000	-4.55425	292.331	1.16933
732.0000	-4.70546	292.517	1.17133
731.5000	-4.72535	292.644	1.17271
731.0000	-4.69869	292.781	1.17419
730.5000	-4.78111	292.938	1.17588
730.0000	-4.79377	293.091	1.17754
729.5000	-4.64433	293.235	1.1791
729.0000	-4.52103	293.349	1.18033
728.5000	-4.38565	293.384	1.18071
728.0000	-4.41297	293.357	1.18042
727.5000	-4.47001	293.308	1.17989
727.0000	-4.43478	293.223	1.17897
726.5000	-4.52623	293.079	1.17741
726.0000	-4.60411	292.881	1.17527
725.5000	-4.66127	292.581	1.17203
725.0000	-4.68567	292.295	1.16893
724.5000	-4.65636	292.003	1.16577
724.0000	-4.70749	291.666	1.16212
723.5000	-4.68484	291.295	1.15809
723.0000	-4.62902	290.889	1.15368
722.5000	-4.6686	290.361	1.14795
722.0000	-4.58615	289.891	1.14284
721.5000	-4.55869	289.409	1.1376
721.0000	-4.52853	288.927	1.13233
720.5000	-4.45972	288.451	1.12714
720.0000	-4.53353	287.957	1.12174
719.5000	-4.49032	287.397	1.11562
719.0000	-4.48395	286.966	1.11091
718.5000	-4.47568	286.548	1.10632
718.0000	-4.42191	286.158	1.10205
717.5000	-4.40224	285.796	1.09807
717.0000	-4.4198	285.382	1.09352
716.5000	-4.31378	285.062	1.09001
716.0000	-4.24098	284.864	1.08783
715.5000	-4.21098	284.752	1.0866
715.0000	-4.25445	284.717	1.08621
714.5000	-4.24303	284.746	1.08653
714.0000	-4.19142	284.775	1.08684
713.5000	-4.13641	284.974	1.08904
713.0000	-4.2709	285.213	1.09167
712.5000	-4.30686	285.47	1.09449
712.0000	-4.3026	285.728	1.09732
711.5000	-4.36058	285.885	1.09905
711.0000	-4.39827	286.048	1.10084
710.5000	-4.4252	286.252	1.10308
710.0000	-4.48153	286.419	1.10491
709.5000	-4.34703	286.568	1.10654
709.0000	-4.38311	286.639	1.10732
708.5000	-4.42634	286.669	1.10765
708.0000	-4.44844	286.783	1.1089
707.5000	-4.49886	286.882	1.10998
707.0000	-4.59514	286.958	1.11081
706.5000	-4.60429	286.979	1.11104
706.0000	-4.74683	286.909	1.11028
705.5000	-4.71137	286.93	1.11051
705.0000	-4.79539	286.96	1.11084
704.5000	-4.95011	286.998	1.11126
704.0000	-5.06997	287.004	1.11132
703.5000	-5.16484	286.96	1.11084
703.0000	-5.19383	287.029	1.11159
702.5000	-5.3308	287.151	1.11293
702.0000	-5.53148	287.292	1.11447
701.5000	-5.74627	287.418	1.11585
701.0000	-5.90051	287.497	1.11672
700.5000	-6.13519	287.678	1.1187
700.0000	-6.44645	287.924	1.12138
699.5000	-6.77262	288.206	1.12446
699.0000	-7.02265	288.49	1.12757
698.5000	-7.24892	288.738	1.13027
698.0000	-7.47194	289.11	1.13433
697.5000	-7.69369	289.572	1.13937
697.0000	-7.96431	290.074	1.14483
696.5000	-8.19853	290.547	1.14997
696.0000	-8.47607	291.036	1.15528
695.5000	-8.80709	291.67	1.16216
695.0000	-9.12436	292.417	1.17025
694.5000	-9.41673	293.236	1.17911
694.0000	-9.62449	294.037	1.18776
693.5000	-9.90474	294.887	1.19692
693.0000	-10.3959	295.95	1.20835
692.5000	-10.7468	297.156	1.22128
692.0000	-11.1435	298.479	1.23544
691.5000	-11.5986	299.801	1.24953
691.0000	-12.216	301.295	1.26541
690.5000	-12.8509	303.077	1.28429
690.0000	-13.2669	305	1.30458
689.5000	-13.6929	307.003	1.32562
689.0000	-14.127	309.059	1.34711
688.5000	-14.4524	311.24	1.36981
688.0000	-14.8502	313.567	1.39389
687.5000	-15.1347	315.984	1.41878
687.0000	-15.3785	318.444	1.44396
686.5000	-15.7738	321.153	1.47153
686.0000	-16.2482	324.106	1.50139
685.5000	-16.583	327.32	1.53364
685.0000	-16.8265	330.789	1.56819
684.5000	-17.0045	334.534	1.60516
684.0000	-17.4698	338.593	1.64486
683.5000	-17.7234	342.98	1.68733
683.0000	-17.8913	347.555	1.73114
682.5000	-18.1102	352.155	1.77469
682.0000	-18.3424	356.915	1.81923
681.5000	-18.3261	361.887	1.86517
681.0000	-18.1121	366.912	1.91102
680.5000	-17.9348	371.875	1.95571
680.0000	-17.7188	376.708	1.99866
679.5000	-17.2351	381.524	2.04093
679.0000	-16.7506	386.481	2.08386
678.5000	-16.0538	391.211	2.12428
678.0000	-15.5959	395.675	2.16194
677.5000	-15.1408	399.959	2.19764
677.0000	-14.6719	404.18	2.23239
676.5000	-13.9221	408.202	2.26512
676.0000	-13.205	411.744	2.29362
675.5000	-12.5557	414.881	2.31862
675.0000	-11.9368	417.657	2.34054
674.5000	-10.927	419.976	2.35872
674.0000	-10.4689	421.53	2.37082
673.5000	-9.46692	422.424	2.37776
673.0000	-9.26393	422.729	2.38012
672.5000	-9.10798	422.475	2.37816
672.0000	-9.15518	421.422	2.36998
671.5000	-9.29514	419.702	2.35657
671.0000	-9.87643	417.405	2.33856
670.5000	-10.1428	414.643	2.31673
670.0000	-10.8526	411.159	2.28893
669.5000	-11.4879	407.111	2.25628
669.0000	-11.7887	402.671	2.22002
668.5000	-12.3818	397.963	2.18106
668.0000	-12.6986	392.841	2.13808
667.5000	-12.805	387.494	2.09256
667.0000	-13.2056	382.097	2.04592
666.5000	-13.3884	376.805	1.99953
666.0000	-13.5115	371.414	1.95157
665.5000	-13.8142	365.94	1.90219
665.0000	-13.6892	360.626	1.85357
664.5000	-13.5371	355.552	1.80653
664.0000	-13.5641	350.486	1.75895
663.5000	-13.196	345.558	1.71208
663.0000	-12.6274	340.831	1.66659
662.5000	-12.1077	336.464	1.62409
662.0000	-11.5578	332.3	1.58315
661.5000	-11.2072	328.362	1.54405
661.0000	-10.7806	324.677	1.50713
660.5000	-10.214	321.301	1.47303
660.0000	-9.74249	318.041	1.43985
659.5000	-9.34281	315.023	1.4089
659.0000	-8.8613	312.225	1.38001
658.5000	-8.32238	309.622	1.35298
658.0000	-7.86	307.13	1.32694
657.5000	-7.57895	304.844	1.30294
657.0000	-7.44905	302.766	1.281
656.5000	-7.16921	300.803	1.26019
656.0000	-6.83191	298.946	1.24042
655.5000	-6.62065	297.218	1.22195
655.0000	-6.28902	295.671	1.20535
654.5000	-6.06218	294.17	1.18919
654.0000	-5.72772	292.784	1.17423
653.5000	-5.37908	291.523	1.16057
653.0000	-5.18273	290.413	1.14852
652.5000	-4.9695	289.365	1.13711
652.0000	-4.76962	288.436	1.12697
651.5000	-4.62525	287.654	1.11843
651.0000	-4.47236	286.976	1.11101
650.5000	-4.29883	286.37	1.10437
650.0000	-4.10179	285.867	1.09885
649.5000	-3.94859	285.495	1.09477
649.0000	-3.77893	285.165	1.09114
648.5000	-3.62303	284.902	1.08825
648.0000	-3.59586	284.702	1.08605
647.5000	-3.55392	284.567	1.08456
647.0000	-3.46912	284.456	1.08333
646.5000	-3.45031	284.376	1.08246
646.0000	-3.45016	284.332	1.08197
645.5000	-3.35537	284.296	1.08157
645.0000	-3.40189	284.27	1.08129
644.5000	-3.24964	284.271	1.08131
644.0000	-3.24846	284.295	1.08157
643.5000	-3.23725	284.307	1.0817
643.0000	-3.12708	284.319	1.08183
642.5000	-3.11586	284.358	1.08226
642.0000	-3.16418	284.39	1.08261
641.5000	-3.13649	284.432	1.08307
641.0000	-3.15878	284.465	1.08344
640.5000	-3.10092	284.504	1.08386
640.0000	-3.08258	284.54	1.08426
639.5000	-3.06816	284.572	1.08462
639.0000	-2.96143	284.609	1.08502
638.5000	-2.81341	284.633	1.08529
638.0000	-2.80825	284.648	1.08545
637.5000	-2.85233	284.637	1.08533
637.0000	-2.70574	284.605	1.08497
636.5000	-2.61011	284.552	1.0844
636.0000	-2.48623	284.451	1.08329
635.5000	-2.4755	284.333	1.08199
635.0000	-2.36446	284.182	1.08032
634.5000	-2.26345	283.982	1.07811
634.0000	-2.18396	283.78	1.07588
633.5000	-2.15011	283.571	1.07359
633.0000	-2.19075	283.336	1.07099
632.5000	-2.21857	283.078	1.06814
632.0000	-2.27287	282.837	1.06548
631.5000	-2.26631	282.587	1.06272
631.0000	-2.17924	282.295	1.05948
630.5000	-2.11035	282.033	1.05659
630.0000	-2.11607	281.764	1.05361
629.5000	-2.07454	281.479	1.05045
629.0000	-2.10655	281.219	1.04757
628.5000	-2.05188	280.962	1.04472
628.0000	-2.09944	280.668	1.04146
627.5000	-2.18535	280.42	1.0387
627.0000	-2.1466	280.174	1.03596
626.5000	-2.17312	279.889	1.0328
626.0000	-2.10865	279.654	1.03019
625.5000	-2.07667	279.421	1.0276
625.0000	-2.08821	279.125	1.0243
624.5000	-2.07578	278.889	1.02167
624.0000	-2.16737	278.656	1.01907
623.5000	-2.21713	278.367	1.01585
623.0000	-2.26929	278.137	1.01328
622.5000	-2.34354	277.896	1.01031
622.0000	-2.28682	277.597	1.00643
621.5000	-2.31739	277.374	1.00354
621.0000	-2.31455	277.138	1.00048
620.5000	-2.30827	276.857	0.996829
620.0000	-2.32091	276.611	0.993639
619.5000	-2.29396	276.327	0.989967
619.0000	-2.39322	275.997	0.985684
618.5000	-2.40794	275.697	0.981794
618.0000	-2.49045	275.348	0.977264
617.5000	-2.48617	274.965	0.972302
617.0000	-2.4848	274.613	0.967731
616.5000	-2.46531	274.206	0.962457
616.0000	-2.44605	273.792	0.957078
615.5000	-2.44651	273.4	0.951995
615.0000	-2.40227	272.963	0.946334
614.5000	-2.2817	272.553	0.941012
614.0000	-2.18063	272.144	0.935703
613.5000	-2.11324	271.655	0.929369
613.0000	-2.08073	271.238	0.923951
612.5000	-1.97298	270.8	0.918277
612.0000	-1.8247	270.324	0.912107
611.5000	-1.7545	269.899	0.906588
611.0000	-1.76112	269.425	0.900449
610.5000	-1.75329	268.968	0.894512
610.0000	-1.76512	268.545	0.889024
609.5000	-1.62134	268.053	0.882647
609.0000	-1.50221	267.613	0.876938
608.5000	-1.48255	267.16	0.871072
608.0000	-1.50168	266.667	0.864669
607.5000	-1.38093	266.245	0.859201
607.0000	-1.17888	265.793	0.85334
606.5000	-1.0575	265.366	0.847792
606.0000	-1.06056	264.979	0.842774
605.5000	-1.05148	264.553	0.837255
605.0000	-0.900444	264.193	0.832577
604.5000	-0.725656	263.842	0.828031
604.0000	-0.554918	263.492	0.823485
603.5000	-0.462509	263.208	0.81981
603.0000	-0.376118	262.88	0.815549
602.5000	-0.264436	262.6	0.811928
602.0000	-0.196541	262.344	0.808606
601.5000	-0.0892746	262.082	0.805198
601.0000	-0.0120361	261.885	0.802652
600.5000	-0.0326157	261.648	0.79957
600.0000	0.0525574	261.452	0.797036
599.5000	0.15415	261.301	0.795079
599.0000	0.294591	261.127	0.792812
598.5000	0.395877	261.014	0.791354
598.0000	0.417242	260.859	0.789344
597.5000	0.474989	260.73	0.787672
597.0000	0.603548	260.628	0.786347
596.5000	0.631865	260.501	0.784699
596.0000	0.702556	260.416	0.783592
595.5000	0.700334	260.301	0.782103
595.0000	0.700836	260.209	0.780907
594.5000	0.777864	260.123	0.77979
594.0000	0.727539	260.028	0.778565
593.5000	0.672801	259.95	0.777547
593.0000	0.69519	259.829	0.775987
592.5000	0.673137	259.74	0.774832
592.0000	0.680861	259.622	0.773292
591.5000	0.706607	259.507	0.771806
591.0000	0.744664	259.39	0.770291
590.5000	0.83009	259.252	0.768499
590.0000	0.865623	259.144	0.767097
589.5000	0.816763	259.016	0.765432
589.0000	0.861279	258.886	0.763751
588.5000	0.843272	258.741	0.761874
588.0000	0.829988	258.597	0.760006
587.5000	0.842287	258.464	0.758282
587.0000	0.845648	258.324	0.756464
586.5000	0.882816	258.184	0.754642
586.0000	0.997508	258.036	0.752733
585.5000	0.952898	257.899	0.750953
585.0000	0.912099	257.76	0.749146
584.5000	0.846962	257.614	0.747258
584.0000	0.722476	257.441	0.745011
583.5000	0.594034	257.265	0.742728
583.0000	0.430487	257.093	0.740496
582.5000	0.364595	256.917	0.738219
582.0000	0.393802	256.724	0.735708
581.5000	0.426701	256.528	0.733168
581.0000	0.455908	256.329	0.730592
580.5000	0.475056	256.139	0.728127
580.0000	0.555666	255.929	0.725395
579.5000	0.659373	255.727	0.722777
579.0000	0.669865	255.517	0.720058
578.5000	0.727954	255.328	0.717601
578.0000	0.730833	255.121	0.714919
577.5000	0.867815	254.925	0.712376
577.0000	0.949809	254.73	0.709854
576.5000	1.0338	254.557	0.70761
576.0000	1.12554	254.385	0.705367
575.5000	1.13209	254.198	0.70295
575.0000	1.1352	254.028	0.700748
574.5000	1.07038	253.86	0.698558
574.0000	1.00672	253.707	0.696583
573.5000	0.983548	253.533	0.694329
573.0000	0.916556	253.389	0.69245
572.5000	0.9015	253.226	0.690345
572.0000	0.906587	253.109	0.688829
571.5000	0.866487	252.96	0.686896
571.0000	0.920308	252.855	0.685535
570.5000	0.926125	252.738	0.684008
570.0000	0.985669	252.669	0.683121
569.5000	1.01753	252.568	0.681803
569.0000	1.07708	252.51	0.681054
568.5000	1.12775	252.43	0.680023
568.0000	1.20271	252.399	0.67962
567.5000	1.26468	252.334	0.678773
567.0000	1.21847	252.293	0.678234
566.5000	1.16226	252.237	0.67752
566.0000	1.10283	252.22	0.677289
565.5000	1.06719	252.18	0.676775
565.0000	0.985628	252.158	0.67649
564.5000	1.0181	252.134	0.676174
564.0000	1.04162	252.135	0.676197
563.5000	1.11924	252.137	0.676214
563.0000	1.16237	252.154	0.67644
562.5000	1.15752	252.197	0.67699
562.0000	1.24401	252.24	0.677555
561.5000	1.24031	252.312	0.678485
561.0000	1.217	252.376	0.679322
560.5000	1.24109	252.492	0.680818
560.0000	1.18552	252.589	0.682081
559.5000	1.19927	252.72	0.68378
559.0000	1.2503	252.836	0.685281
558.5000	1.2496	253.008	0.68751
558.0000	1.25825	253.174	0.689671
557.5000	1.2061	253.363	0.692117
557.0000	1.19012	253.557	0.694636
556.5000	1.21302	253.764	0.697325
556.0000	1.2854	254.004	0.700427
555.5000	1.25623	254.235	0.703425
555.0000	1.27245	254.499	0.706851
554.5000	1.36435	254.746	0.710055
554.0000	1.39996	255.035	0.713804
553.5000	1.36017	255.318	0.717472
553.0000	1.31894	255.619	0.721375
552.5000	1.30951	255.923	0.725317
552.0000	1.27456	256.214	0.729089
551.5000	1.24343	256.523	0.733103
551.0000	1.27988	256.821	0.736974
550.5000	1.42612	257.126	0.74092
550.0000	1.54759	257.417	0.744698
549.5000	1.52994	257.697	0.748331
549.0000	1.50981	257.97	0.751866
548.5000	1.56137	258.233	0.755276
548.0000	1.56692	258.489	0.758607
547.5000	1.47899	258.73	0.761734
547.0000	1.4799	258.967	0.764806
546.5000	1.50808	259.216	0.76803
546.0000	1.57167	259.457	0.771154
545.5000	1.59843	259.69	0.774175
545.0000	1.6376	259.926	0.77724
544.5000	1.66414	260.17	0.780403
544.0000	1.74256	260.421	0.783659
543.5000	1.69428	260.679	0.787012
543.0000	1.75318	260.941	0.790398
542.5000	1.84466	261.211	0.793913
542.0000	1.84971	261.494	0.797573
541.5000	1.88558	261.759	0.801015
541.0000	1.94893	262.024	0.804447
540.5000	2.04402	262.267	0.807597
540.0000	2.1043	262.481	0.810375
539.5000	2.1037	262.685	0.813024
539.0000	2.10904	262.85	0.815169
538.5000	2.1766	263.004	0.817166
538.0000	2.13049	263.176	0.819397
537.5000	2.13125	263.327	0.821352
537.0000	2.09352	263.471	0.823216
536.5000	2.0195	263.635	0.82534
536.0000	2.07707	263.795	0.827416
535.5000	2.09845	263.962	0.82959
535.0000	2.1956	264.135	0.83183
534.5000	2.24599	264.3	0.833969
534.0000	2.28958	264.473	0.836218
533.5000	2.31993	264.658	0.838615
533.0000	2.38139	264.826	0.840797
532.5000	2.41607	265.008	0.843157
532.0000	2.35327	265.195	0.845585
531.5000	2.21923	265.355	0.847651
531.0000	2.14051	265.544	0.850108
530.5000	2.1615	265.747	0.852739
530.0000	2.10722	265.944	0.855289
529.5000	2.04501	266.163	0.858128
529.0000	2.04139	266.396	0.861156
528.5000	2.10175	266.654	0.864504
528.0000	2.22087	266.914	0.867869
527.5000	2.15308	267.183	0.871357
527.0000	2.09465	267.456	0.874904
526.5000	2.09043	267.718	0.878307
526.0000	2.01533	268.003	0.882001
525.5000	1.80802	268.294	0.88577
525.0000	1.66915	268.567	0.889318
524.5000	1.56474	268.872	0.893269
524.0000	1.55614	269.2	0.897521
523.5000	1.60735	269.532	0.901825
523.0000	1.62572	269.866	0.906162
522.5000	1.72044	270.221	0.910769
522.0000	1.75339	270.576	0.915376
521.5000	1.75291	270.938	0.920065
521.0000	1.67067	271.298	0.924732
520.5000	1.45721	271.661	0.929437
520.0000	1.25036	272.049	0.934475
519.5000	1.11026	272.439	0.939529
519.0000	0.933562	272.846	0.944815
518.5000	0.802551	273.252	0.950074
518.0000	0.762225	273.654	0.955294
517.5000	0.718777	274.059	0.960539
517.0000	0.73956	274.468	0.965856
516.5000	0.732813	274.876	0.971138
516.0000	0.703563	275.291	0.97652
515.5000	0.671162	275.718	0.982069
515.0000	0.623029	276.191	0.988202
514.5000	0.531717	276.677	0.994499
514.0000	0.557848	277.191	1.00117
513.5000	0.412509	277.71	1.00789
513.0000	0.272707	278.251	1.01455
512.5000	0.182739	278.813	1.02082
512.0000	0.0475601	279.365	1.02697
511.5000	-0.130827	279.908	1.03301
511.0000	-0.293246	280.454	1.03908
510.5000	-0.548338	281.001	1.04515
510.0000	-0.606902	281.561	1.05136
509.5000	-0.810483	282.115	1.05749
509.0000	-1.04174	282.663	1.06355
508.5000	-1.21283	283.22	1.06971
508.0000	-1.28148	283.788	1.07597
507.5000	-1.42803	284.361	1.08229
507.0000	-1.64349	284.938	1.08864
506.5000	-1.74704	285.523	1.09508
506.0000	-1.9426	286.12	1.10163
505.5000	-2.04827	286.735	1.10837
505.0000	-2.18683	287.387	1.11551
504.5000	-2.4262	288.074	1.12303
504.0000	-2.57699	288.812	1.13108
503.5000	-2.7109	289.592	1.13958
503.0000	-2.98107	290.415	1.14853
502.5000	-3.14069	291.252	1.15762
502.0000	-3.35765	292.121	1.16705
501.5000	-3.59897	292.999	1.17654
501.0000	-3.7275	293.895	1.18622
500.5000	-3.96109	294.799	1.19597
500.0000	-4.12353	295.711	1.20578
499.5000	-4.37984	296.622	1.21556
499.0000	-4.61638	297.545	1.22545
498.5000	-4.96189	298.458	1.23521
498.0000	-5.30105	299.348	1.24471
497.5000	-5.62375	300.201	1.25379
497.0000	-5.84839	301.014	1.26244
496.5000	-6.20076	301.753	1.27027
496.0000	-6.54792	302.413	1.27727
495.5000	-6.83562	303.002	1.2835
495.0000	-7.06461	303.566	1.28946
494.5000	-7.41592	304.138	1.2955
494.0000	-7.70021	304.748	1.30192
493.5000	-7.98829	305.459	1.30941
493.0000	-8.24316	306.352	1.31879
492.5000	-8.37219	307.435	1.33014
492.0000	-8.58851	308.671	1.34307
491.5000	-8.85839	309.996	1.35688
491.0000	-9.06076	311.335	1.37079
490.5000	-9.3115	312.635	1.38426
490.0000	-9.6153	313.792	1.39622
489.5000	-9.9054	314.728	1.40586
489.0000	-10.3402	315.45	1.41329
488.5000	-10.7355	315.929	1.41822
488.0000	-10.9623	316.193	1.42092
487.5000	-11.3256	316.252	1.42152
487.0000	-11.6459	316.11	1.42007
486.5000	-11.8975	315.796	1.41685
486.0000	-12.1912	315.342	1.41217
485.5000	-12.3957	314.776	1.40636
485.0000	-12.5961	314.152	1.39992
484.5000	-12.7299	313.531	1.39352
484.0000	-12.8335	312.974	1.38777
483.5000	-12.9073	312.533	1.3832
483.0000	-12.9571	312.263	1.38041
482.5000	-13.028	312.199	1.37975
482.0000	-13.0461	312.341	1.38122
481.5000	-13.1561	312.656	1.38448
481.0000	-13.3418	313.096	1.38903
480.5000	-13.3169	313.609	1.39432
480.0000	-13.3365	314.125	1.39965
479.5000	-13.1573	314.597	1.40452
479.0000	-13.182	314.954	1.40819
478.5000	-13.2466	315.183	1.41055
478.0000	-13.0462	315.249	1.41123
477.5000	-12.8238	315.13	1.41
477.0000	-12.7667	314.851	1.40713
476.5000	-12.7395	314.46	1.40311
476.0000	-12.689	314.023	1.39859
475.5000	-12.5716	313.64	1.39465
475.0000	-12.2735	313.47	1.39289
474.5000	-12.2691	313.585	1.39407
474.0000	-12.3235	314.036	1.39873
473.5000	-12.4333	314.805	1.40666
473.0000	-12.4348	315.849	1.41739
472.5000	-12.2822	317.027	1.42947
472.0000	-12.1788	318.205	1.44152
471.5000	-12.062	319.296	1.45265
471.0000	-11.9527	320.304	1.46291
470.5000	-11.829	321.281	1.47283
470.0000	-11.5383	322.309	1.48324
469.5000	-11.3672	323.516	1.49544
469.0000	-11.3262	325.047	1.51086
468.5000	-11.3202	326.977	1.53021
468.0000	-11.4556	329.281	1.55321
467.5000	-11.2036	331.913	1.57932
467.0000	-10.9953	334.716	1.60696
466.5000	-10.7309	337.589	1.63508
466.0000	-10.3937	340.361	1.66203
465.5000	-10.208	342.951	1.68706
465.0000	-9.9086	345.345	1.71004
464.5000	-9.67256	347.571	1.73129
464.0000	-9.40683	349.67	1.75123
463.5000	-8.97169	351.754	1.77091
463.0000	-8.39878	353.947	1.79151
462.5000	-7.96262	356.237	1.81292
462.0000	-7.27269	358.59	1.83477
461.5000	-6.63313	360.965	1.8567
461.0000	-5.65399	363.332	1.87841
460.5000	-4.89016	365.609	1.89919
