TITLE	cm13
DATA TYPE	
ORIGIN	JASCO
OWNER	
DATE	16/02/05
TIME	13:45:02
SPECTROMETER/DATA SYSTEM	
LOCALE	1033
RESOLUTION	
DELTAX	-0.5
XUNITS	NANOMETERS
YUNITS	CD [mdeg]
Y2UNITS	HT [V]
Y3UNITS	ABSORBANCE
FIRSTX	  750.0000
LASTX	  350.0000
NPOINTS	     801
FIRSTY	    -4.25198
MAXY	    40.88314
MINY	   -21.02004
XYDATA
750.0000	-4.25198	311.735	1.37494
749.5000	-4.44216	311.414	1.37161
749.0000	-4.42721	311.043	1.36776
748.5000	-4.35712	310.61	1.36326
748.0000	-4.14824	310.133	1.3583
747.5000	-4.17438	309.628	1.35305
747.0000	-4.29185	309.085	1.34738
746.5000	-4.07547	308.556	1.34186
746.0000	-3.9992	308.039	1.33646
745.5000	-3.9762	307.552	1.33137
745.0000	-3.96927	307.119	1.32683
744.5000	-4.07148	306.728	1.32274
744.0000	-3.97979	306.39	1.31919
743.5000	-3.92061	306.129	1.31645
743.0000	-4.00271	305.904	1.31409
742.5000	-3.97926	305.705	1.312
742.0000	-4.12405	305.511	1.30995
741.5000	-4.139	305.293	1.30766
741.0000	-4.12391	305.013	1.30472
740.5000	-4.19492	304.646	1.30085
740.0000	-4.13426	304.178	1.29592
739.5000	-4.15656	303.604	1.28986
739.0000	-4.09505	302.921	1.28265
738.5000	-3.99214	302.13	1.27427
738.0000	-3.9469	301.288	1.26534
737.5000	-3.91782	300.416	1.25607
737.0000	-3.92138	299.693	1.24838
736.5000	-3.87583	299.134	1.24242
736.0000	-3.92849	298.766	1.2385
735.5000	-3.96538	298.6	1.23673
735.0000	-4.01547	298.629	1.23703
734.5000	-3.85427	298.753	1.23836
734.0000	-3.801	298.987	1.24086
733.5000	-3.78166	299.261	1.24378
733.0000	-3.72016	299.521	1.24655
732.5000	-3.60989	299.733	1.24881
732.0000	-3.63043	299.907	1.25066
731.5000	-3.72215	300.02	1.25186
731.0000	-3.89854	300.142	1.25316
730.5000	-3.98671	300.296	1.2548
730.0000	-4.10416	300.438	1.25631
729.5000	-4.22117	300.561	1.25762
729.0000	-4.2772	300.666	1.25874
728.5000	-4.11821	300.694	1.25903
728.0000	-3.9461	300.661	1.25868
727.5000	-3.87669	300.619	1.25823
727.0000	-3.78534	300.527	1.25726
726.5000	-3.67251	300.381	1.25571
726.0000	-3.48315	300.201	1.25379
725.5000	-3.37276	299.906	1.25065
725.0000	-3.43329	299.615	1.24756
724.5000	-3.39349	299.334	1.24456
724.0000	-3.41252	299.001	1.241
723.5000	-3.42126	298.629	1.23704
723.0000	-3.4019	298.227	1.23274
722.5000	-3.43694	297.702	1.22713
722.0000	-3.50602	297.222	1.22199
721.5000	-3.63103	296.739	1.21681
721.0000	-3.63914	296.254	1.21161
720.5000	-3.57218	295.775	1.20646
720.0000	-3.51764	295.289	1.20124
719.5000	-3.58259	294.734	1.19527
719.0000	-3.57128	294.31	1.1907
718.5000	-3.54743	293.915	1.18644
718.0000	-3.48663	293.556	1.18256
717.5000	-3.42409	293.224	1.17898
717.0000	-3.4785	292.849	1.17492
716.5000	-3.45264	292.573	1.17194
716.0000	-3.29308	292.43	1.17039
715.5000	-3.14899	292.367	1.16971
715.0000	-2.94022	292.388	1.16994
714.5000	-2.90022	292.474	1.17088
714.0000	-2.87328	292.565	1.17186
713.5000	-2.84103	292.83	1.17473
713.0000	-2.89967	293.139	1.17806
712.5000	-2.9455	293.467	1.18161
712.0000	-3.00845	293.803	1.18523
711.5000	-3.1471	294.039	1.18778
711.0000	-3.27898	294.291	1.1905
710.5000	-3.27171	294.589	1.19371
710.0000	-3.27805	294.87	1.19673
709.5000	-3.2904	295.128	1.19951
709.0000	-3.51676	295.319	1.20157
708.5000	-3.59925	295.467	1.20316
708.0000	-3.66252	295.712	1.20579
707.5000	-3.7529	295.946	1.2083
707.0000	-3.89848	296.165	1.21065
706.5000	-4.16897	296.335	1.21248
706.0000	-4.21715	296.448	1.21369
705.5000	-4.43048	296.661	1.21598
705.0000	-4.72303	296.912	1.21867
704.5000	-4.85846	297.178	1.22152
704.0000	-5.01281	297.427	1.22418
703.5000	-5.16295	297.646	1.22653
703.0000	-5.33251	297.982	1.23012
702.5000	-5.57486	298.379	1.23436
702.0000	-5.62348	298.815	1.23902
701.5000	-5.74975	299.249	1.24365
701.0000	-5.93429	299.676	1.2482
700.5000	-6.18702	300.234	1.25414
700.0000	-6.44386	300.886	1.26107
699.5000	-6.70016	301.62	1.26886
699.0000	-7.02149	302.388	1.277
698.5000	-7.43203	303.158	1.28515
698.0000	-7.73548	304.127	1.29538
697.5000	-8.16942	305.237	1.30708
697.0000	-8.48206	306.428	1.31958
696.5000	-8.86623	307.626	1.33214
696.0000	-9.34093	308.883	1.34528
695.5000	-9.69598	310.351	1.36057
695.0000	-9.94903	311.98	1.37748
694.5000	-10.1882	313.71	1.39537
694.0000	-10.471	315.423	1.41301
693.5000	-10.7086	317.221	1.43145
693.0000	-10.9522	319.284	1.45252
692.5000	-11.1183	321.537	1.47542
692.0000	-11.6232	323.93	1.49961
691.5000	-12.1228	326.336	1.52379
691.0000	-12.8209	328.96	1.55001
690.5000	-13.5099	331.965	1.57984
690.0000	-13.9491	335.142	1.61114
689.5000	-14.4302	338.424	1.64322
689.0000	-14.9873	341.786	1.67582
688.5000	-15.4401	345.291	1.70952
688.0000	-15.8407	348.951	1.74441
687.5000	-16.0815	352.692	1.77973
687.0000	-16.5127	356.473	1.8151
686.5000	-17.2684	360.543	1.8528
686.0000	-17.9479	364.833	1.89212
685.5000	-18.497	369.353	1.93307
685.0000	-19.0722	374.137	1.97588
684.5000	-19.5908	379.214	2.02073
684.0000	-20.0994	384.625	2.06785
683.5000	-20.5134	390.352	2.11698
683.0000	-20.7873	396.237	2.16665
682.5000	-20.766	402.135	2.21561
682.0000	-21.02	408.193	2.26505
681.5000	-20.9887	414.461	2.31528
681.0000	-20.988	420.72	2.36452
680.5000	-20.4097	426.841	2.41177
680.0000	-19.6438	432.765	2.45667
679.5000	-19.3359	438.625	2.49999
679.0000	-18.99	444.572	2.54125
678.5000	-18.321	450.207	2.58009
678.0000	-17.5553	455.475	2.61618
677.5000	-16.4304	460.479	2.65027
677.0000	-16.1188	465.319	2.68305
676.5000	-15.3591	469.833	2.71346
676.0000	-14.4549	473.687	2.7393
675.5000	-14.2783	476.956	2.76113
675.0000	-14.1174	479.69	2.77933
674.5000	-14.0655	481.759	2.79306
674.0000	-14.061	482.879	2.80047
673.5000	-14.0027	483.142	2.80221
673.0000	-14.7845	482.684	2.79918
672.5000	-14.8018	481.521	2.79147
672.0000	-15.2044	479.336	2.77697
671.5000	-15.4202	476.374	2.75725
671.0000	-15.9472	472.692	2.73264
670.5000	-16.7826	468.389	2.70375
670.0000	-17.204	463.239	2.66898
669.5000	-17.9831	457.386	2.62922
669.0000	-18.0532	451.139	2.58649
668.5000	-18.4017	444.604	2.54147
668.0000	-18.6161	437.591	2.49263
667.5000	-18.8772	430.372	2.43863
667.0000	-18.9791	423.163	2.38349
666.5000	-18.9926	416.113	2.32837
666.0000	-18.6702	408.993	2.27151
665.5000	-19.1252	401.797	2.21283
665.0000	-18.8275	394.837	2.15491
664.5000	-18.2707	388.198	2.0986
664.0000	-17.8365	381.598	2.04158
663.5000	-17.4555	375.177	1.98512
663.0000	-16.815	369.03	1.93016
662.5000	-15.9627	363.329	1.87839
662.0000	-15.2142	357.907	1.82844
661.5000	-14.7523	352.797	1.78072
661.0000	-14.2539	348.016	1.73553
660.5000	-13.66	343.625	1.69354
660.0000	-13.1906	339.419	1.65289
659.5000	-12.6343	335.535	1.61499
659.0000	-12.1668	331.935	1.57954
658.5000	-11.3736	328.608	1.54651
658.0000	-10.666	325.444	1.51484
657.5000	-10.0423	322.554	1.48572
657.0000	-9.46682	319.94	1.45921
656.5000	-8.94888	317.491	1.43422
656.0000	-8.39161	315.194	1.41066
655.5000	-7.91024	313.077	1.38883
655.0000	-7.51508	311.185	1.36923
654.5000	-7.04972	309.373	1.35038
654.0000	-6.67129	307.714	1.33306
653.5000	-6.20771	306.214	1.31734
653.0000	-5.79878	304.898	1.30351
652.5000	-5.56498	303.667	1.29052
652.0000	-5.34942	302.576	1.27899
651.5000	-5.10848	301.665	1.26935
651.0000	-4.89909	300.876	1.26097
650.5000	-4.62905	300.18	1.25356
650.0000	-4.34509	299.601	1.2474
649.5000	-4.29905	299.16	1.2427
649.0000	-4.03223	298.787	1.23872
648.5000	-3.87115	298.492	1.23557
648.0000	-3.69866	298.274	1.23325
647.5000	-3.57922	298.145	1.23186
647.0000	-3.54724	298.046	1.23081
646.5000	-3.45886	297.991	1.23022
646.0000	-3.31904	297.987	1.23017
645.5000	-3.35205	297.997	1.23028
645.0000	-3.21975	298.028	1.23062
644.5000	-3.14059	298.084	1.23121
644.0000	-3.0975	298.165	1.23208
643.5000	-3.06716	298.236	1.23284
643.0000	-2.96173	298.312	1.23365
642.5000	-2.91028	298.408	1.23468
642.0000	-2.80938	298.503	1.23569
641.5000	-2.8022	298.613	1.23687
641.0000	-2.87926	298.71	1.2379
640.5000	-2.88068	298.805	1.23891
640.0000	-2.82586	298.901	1.23993
639.5000	-2.75116	298.987	1.24086
639.0000	-2.54675	299.08	1.24185
638.5000	-2.3583	299.148	1.24257
638.0000	-2.21118	299.187	1.24299
637.5000	-2.07234	299.204	1.24317
637.0000	-1.88041	299.202	1.24315
636.5000	-1.78848	299.161	1.24271
636.0000	-1.8143	299.066	1.2417
635.5000	-1.91633	298.937	1.24032
635.0000	-2.01259	298.769	1.23853
634.5000	-1.80914	298.561	1.23631
634.0000	-1.58345	298.335	1.2339
633.5000	-1.41295	298.085	1.23122
633.0000	-1.44316	297.797	1.22815
632.5000	-1.33782	297.486	1.22482
632.0000	-1.20082	297.195	1.2217
631.5000	-1.13905	296.893	1.21847
631.0000	-1.20837	296.544	1.21472
630.5000	-1.2767	296.23	1.21136
630.0000	-1.19594	295.922	1.20805
629.5000	-1.05784	295.611	1.20471
629.0000	-1.07598	295.326	1.20164
628.5000	-1.16791	295.043	1.1986
628.0000	-1.28689	294.714	1.19505
627.5000	-1.28442	294.434	1.19204
627.0000	-1.4583	294.165	1.18914
626.5000	-1.61691	293.855	1.1858
626.0000	-1.55304	293.599	1.18304
625.5000	-1.36722	293.349	1.18033
625.0000	-1.30023	293.041	1.177
624.5000	-1.40943	292.797	1.17436
624.0000	-1.43649	292.556	1.17176
623.5000	-1.45336	292.248	1.16842
623.0000	-1.48544	292.002	1.16576
622.5000	-1.62418	291.754	1.16307
622.0000	-1.75763	291.429	1.15955
621.5000	-1.89486	291.175	1.1568
621.0000	-1.89531	290.922	1.15405
620.5000	-1.76572	290.615	1.15071
620.0000	-1.76792	290.334	1.14766
619.5000	-1.7176	290.02	1.14424
619.0000	-1.69243	289.634	1.14004
618.5000	-1.66304	289.284	1.13623
618.0000	-1.66098	288.884	1.13186
617.5000	-1.67535	288.435	1.12697
617.0000	-1.77222	288.015	1.12238
616.5000	-1.73321	287.531	1.11709
616.0000	-1.63369	287.031	1.11161
615.5000	-1.50658	286.568	1.10654
615.0000	-1.31685	286.053	1.10089
614.5000	-1.08477	285.55	1.09537
614.0000	-0.939351	285.056	1.08994
613.5000	-0.802693	284.484	1.08364
613.0000	-0.646738	283.977	1.07806
612.5000	-0.610039	283.448	1.07222
612.0000	-0.52364	282.878	1.06593
611.5000	-0.390263	282.357	1.06017
611.0000	-0.269241	281.794	1.05395
610.5000	-0.204047	281.236	1.04776
610.0000	-0.13949	280.72	1.04203
609.5000	-0.161362	280.125	1.03542
609.0000	-0.0457901	279.583	1.0294
608.5000	0.1242	279.032	1.02326
608.0000	0.192528	278.433	1.01659
607.5000	0.288043	277.912	1.01052
607.0000	0.48775	277.367	1.00345
606.5000	0.653232	276.851	0.996757
606.0000	0.932574	276.391	0.99079
605.5000	1.18888	275.891	0.984309
605.0000	1.36875	275.475	0.97891
604.5000	1.54296	275.075	0.973719
604.0000	1.67048	274.678	0.96857
603.5000	1.83319	274.356	0.964392
603.0000	2.00664	273.989	0.959635
602.5000	2.10058	273.683	0.955664
602.0000	2.19268	273.406	0.952073
601.5000	2.36413	273.121	0.948374
601.0000	2.49132	272.911	0.945655
600.5000	2.72578	272.675	0.942596
600.0000	2.87484	272.48	0.940064
599.5000	3.05149	272.338	0.938222
599.0000	3.25872	272.182	0.936195
598.5000	3.36338	272.096	0.93508
598.0000	3.52194	271.965	0.933383
597.5000	3.63019	271.868	0.932129
597.0000	3.74598	271.797	0.931202
596.5000	3.97602	271.709	0.93006
596.0000	4.1286	271.663	0.929464
595.5000	4.19163	271.575	0.928323
595.0000	4.31164	271.513	0.92752
594.5000	4.47451	271.461	0.926852
594.0000	4.65843	271.396	0.926011
593.5000	4.70535	271.342	0.925306
593.0000	4.71612	271.25	0.924117
592.5000	4.67822	271.19	0.923331
592.0000	4.72598	271.107	0.922264
591.5000	4.64723	271.02	0.921124
591.0000	4.56588	270.926	0.919909
590.5000	4.47777	270.824	0.918591
590.0000	4.50137	270.752	0.91766
589.5000	4.53954	270.65	0.916327
589.0000	4.5342	270.545	0.914967
588.5000	4.43628	270.424	0.913398
588.0000	4.37103	270.309	0.911909
587.5000	4.34977	270.196	0.910438
587.0000	4.35216	270.074	0.908857
586.5000	4.30182	269.951	0.907264
586.0000	4.25596	269.815	0.905506
585.5000	4.25087	269.692	0.90391
585.0000	4.30281	269.562	0.902222
584.5000	4.37537	269.43	0.900512
584.0000	4.38392	269.269	0.898419
583.5000	4.42046	269.103	0.896264
583.0000	4.34702	268.935	0.894093
582.5000	4.35282	268.774	0.892003
582.0000	4.39173	268.592	0.889633
581.5000	4.3352	268.413	0.887316
581.0000	4.30379	268.232	0.884966
580.5000	4.25371	268.054	0.882662
580.0000	4.22604	267.862	0.880175
579.5000	4.24204	267.682	0.877837
579.0000	4.15277	267.493	0.875388
578.5000	4.09402	267.328	0.87325
578.0000	4.15017	267.141	0.870816
577.5000	4.23648	266.973	0.868644
577.0000	4.32594	266.807	0.86649
576.5000	4.39836	266.666	0.864652
576.0000	4.53191	266.529	0.862886
575.5000	4.73269	266.381	0.860957
575.0000	4.90126	266.25	0.859258
574.5000	5.00089	266.12	0.857575
574.0000	5.03095	266.015	0.856212
573.5000	5.03764	265.886	0.854542
573.0000	5.00984	265.783	0.853203
572.5000	4.96847	265.664	0.851659
572.0000	4.80969	265.578	0.850543
571.5000	4.77812	265.481	0.849292
571.0000	4.74624	265.425	0.848566
570.5000	4.78209	265.361	0.847737
570.0000	4.79443	265.347	0.847548
569.5000	4.80359	265.307	0.847032
569.0000	4.87172	265.323	0.847236
568.5000	4.95396	265.319	0.847182
568.0000	4.99932	265.356	0.847669
567.5000	5.09313	265.36	0.847725
567.0000	5.13315	265.397	0.848202
566.5000	5.20943	265.422	0.848525
566.0000	5.32323	265.479	0.849257
565.5000	5.33807	265.513	0.849708
565.0000	5.36846	265.581	0.850587
564.5000	5.30881	265.65	0.851485
564.0000	5.30303	265.75	0.852772
563.5000	5.33501	265.848	0.854054
563.0000	5.36286	265.974	0.855683
562.5000	5.36876	266.13	0.857702
562.0000	5.51523	266.294	0.859833
561.5000	5.63673	266.498	0.862485
561.0000	5.76453	266.701	0.865108
560.5000	5.90255	266.951	0.86836
560.0000	6.02332	267.185	0.871386
559.5000	6.1127	267.463	0.874996
559.0000	6.16189	267.73	0.878458
558.5000	6.17169	268.052	0.882631
558.0000	6.29713	268.365	0.886691
557.5000	6.36121	268.712	0.891196
557.0000	6.44236	269.071	0.895854
556.5000	6.49174	269.449	0.900753
556.0000	6.62891	269.856	0.906026
555.5000	6.7524	270.26	0.91127
555.0000	6.93307	270.702	0.917005
554.5000	7.04031	271.131	0.922563
554.0000	7.13291	271.603	0.928693
553.5000	7.19357	272.067	0.934715
553.0000	7.3267	272.543	0.940882
552.5000	7.49407	273.028	0.947168
552.0000	7.64562	273.501	0.953311
551.5000	7.65737	273.983	0.959564
551.0000	7.68415	274.446	0.96557
550.5000	7.77427	274.909	0.971574
550.0000	7.84707	275.363	0.977452
549.5000	7.85539	275.802	0.983157
549.0000	7.8317	276.226	0.988648
548.5000	7.77338	276.628	0.99387
548.0000	7.82157	277.029	0.99907
547.5000	7.89619	277.416	1.00408
547.0000	8.002	277.798	1.00904
546.5000	8.03917	278.182	1.01379
546.0000	8.05274	278.561	1.01801
545.5000	8.12228	278.934	1.02217
545.0000	8.23366	279.304	1.02629
544.5000	8.34744	279.676	1.03043
544.0000	8.36292	280.053	1.03462
543.5000	8.39219	280.438	1.0389
543.0000	8.52688	280.817	1.04311
542.5000	8.6498	281.2	1.04736
542.0000	8.7099	281.589	1.05167
541.5000	8.71658	281.957	1.05575
541.0000	8.72331	282.325	1.05981
540.5000	8.76437	282.658	1.0635
540.0000	8.6634	282.951	1.06674
539.5000	8.61753	283.244	1.06997
539.0000	8.69301	283.486	1.07265
538.5000	8.6323	283.718	1.0752
538.0000	8.66071	283.969	1.07797
537.5000	8.62502	284.19	1.08041
537.0000	8.59207	284.4	1.08273
536.5000	8.63807	284.633	1.08529
536.0000	8.60627	284.856	1.08774
535.5000	8.50794	285.084	1.09025
535.0000	8.47205	285.323	1.09288
534.5000	8.3513	285.547	1.09534
534.0000	8.3667	285.792	1.09803
533.5000	8.37516	286.06	1.10097
533.0000	8.33421	286.308	1.10369
532.5000	8.344	286.566	1.10652
532.0000	8.26457	286.835	1.10947
531.5000	8.34266	287.082	1.11218
531.0000	8.34652	287.359	1.1152
530.5000	8.24607	287.65	1.11838
530.0000	8.19184	287.933	1.12149
529.5000	8.08778	288.248	1.12492
529.0000	7.96156	288.589	1.12865
528.5000	7.82872	288.949	1.13258
528.0000	7.69285	289.311	1.13652
527.5000	7.57324	289.69	1.14065
527.0000	7.43162	290.074	1.14483
526.5000	7.33747	290.455	1.14897
526.0000	7.25259	290.868	1.15346
525.5000	7.12677	291.284	1.15798
525.0000	7.01018	291.703	1.16252
524.5000	6.83937	292.164	1.16752
524.0000	6.86144	292.649	1.17277
523.5000	6.74879	293.146	1.17813
523.0000	6.65297	293.642	1.1835
522.5000	6.60762	294.169	1.18918
522.0000	6.53492	294.702	1.19492
521.5000	6.33645	295.241	1.20073
521.0000	6.20057	295.783	1.20656
520.5000	6.07936	296.328	1.21241
520.0000	5.90444	296.905	1.2186
519.5000	5.65428	297.492	1.22488
519.0000	5.41411	298.106	1.23145
518.5000	5.24368	298.724	1.23805
518.0000	5.05147	299.339	1.24461
517.5000	4.78146	299.966	1.25129
517.0000	4.38552	300.611	1.25815
516.5000	4.22482	301.26	1.26505
516.0000	3.94424	301.916	1.272
515.5000	3.73028	302.583	1.27907
515.0000	3.48519	303.304	1.28669
514.5000	3.40017	304.051	1.29457
514.0000	3.21312	304.825	1.30274
513.5000	2.95925	305.618	1.31108
513.0000	2.63464	306.446	1.31978
512.5000	2.33296	307.304	1.32876
512.0000	2.05684	308.16	1.33772
511.5000	1.76952	309.004	1.34654
511.0000	1.45463	309.856	1.35542
510.5000	1.29987	310.706	1.36425
510.0000	1.1863	311.57	1.37322
509.5000	0.956685	312.416	1.38199
509.0000	0.812428	313.248	1.3906
508.5000	0.541931	314.105	1.39944
508.0000	0.127765	314.95	1.40815
507.5000	-0.275912	315.814	1.41702
507.0000	-0.548319	316.681	1.42593
506.5000	-0.917003	317.551	1.43483
506.0000	-1.16144	318.426	1.44377
505.5000	-1.62001	319.319	1.45288
505.0000	-1.93625	320.235	1.4622
504.5000	-2.17031	321.196	1.47196
504.0000	-2.48877	322.194	1.48208
503.5000	-2.9441	323.218	1.49243
503.0000	-3.07788	324.286	1.5032
502.5000	-3.43733	325.358	1.51398
502.0000	-3.65906	326.439	1.52482
501.5000	-4.07578	327.505	1.53549
501.0000	-4.48814	328.562	1.54604
500.5000	-4.90519	329.607	1.55645
500.0000	-5.49444	330.626	1.56657
499.5000	-6.05391	331.625	1.57648
499.0000	-6.4988	332.594	1.58605
498.5000	-6.84307	333.514	1.59513
498.0000	-7.34253	334.384	1.60369
497.5000	-7.72064	335.166	1.61137
497.0000	-7.92094	335.861	1.61818
496.5000	-8.28378	336.425	1.6237
496.0000	-8.76876	336.853	1.62789
495.5000	-9.34559	337.159	1.63088
495.0000	-9.95249	337.401	1.63324
494.5000	-10.304	337.609	1.63528
494.0000	-10.8406	337.84	1.63753
493.5000	-11.5161	338.142	1.64047
493.0000	-12.0018	338.625	1.64518
492.5000	-12.4843	339.274	1.65148
492.0000	-12.9683	340.058	1.6591
491.5000	-13.4308	340.931	1.66755
491.0000	-14.0952	341.795	1.6759
490.5000	-14.6875	342.598	1.68365
490.0000	-15.2625	343.257	1.69
489.5000	-15.8545	343.682	1.69408
489.0000	-16.3008	343.906	1.69624
488.5000	-16.6344	343.903	1.69621
488.0000	-17.159	343.695	1.69421
487.5000	-17.3964	343.324	1.69064
487.0000	-17.7162	342.787	1.68547
486.5000	-18.0297	342.111	1.67896
486.0000	-18.249	341.356	1.67167
485.5000	-18.6471	340.539	1.66376
485.0000	-18.9774	339.727	1.65588
484.5000	-19.0859	338.993	1.64875
484.0000	-19.0913	338.379	1.64278
483.5000	-19.0681	337.963	1.63872
483.0000	-19.1743	337.797	1.63711
482.5000	-19.1074	337.922	1.63833
482.0000	-19.0768	338.325	1.64225
481.5000	-19.045	338.983	1.64866
481.0000	-19.2219	339.825	1.65684
480.5000	-19.4559	340.807	1.66636
480.0000	-19.523	341.856	1.6765
479.5000	-19.5236	342.886	1.68643
479.0000	-19.5435	343.86	1.69579
478.5000	-19.4434	344.725	1.7041
478.0000	-19.4439	345.428	1.71084
477.5000	-19.5101	345.953	1.71586
477.0000	-19.2813	346.326	1.71942
476.5000	-19.3149	346.576	1.7218
476.0000	-19.2071	346.762	1.72358
475.5000	-19.0724	346.974	1.7256
475.0000	-19.0622	347.411	1.72977
474.5000	-18.7486	348.151	1.73681
474.0000	-18.5738	349.237	1.74712
473.5000	-18.5083	350.657	1.76056
473.0000	-18.2049	352.359	1.7766
472.5000	-17.9964	354.213	1.79401
472.0000	-17.8215	356.055	1.81122
471.5000	-17.6767	357.792	1.82737
471.0000	-17.3246	359.415	1.8424
470.5000	-17.0222	360.961	1.85666
470.0000	-16.903	362.541	1.87117
469.5000	-17.0486	364.286	1.88713
469.0000	-17.0572	366.354	1.90596
468.5000	-16.7483	368.83	1.92836
468.0000	-16.4718	371.664	1.95382
467.5000	-16.7676	374.847	1.98219
467.0000	-16.3853	378.206	2.01187
466.5000	-15.7752	381.601	2.0416
466.0000	-15.1023	384.863	2.06991
465.5000	-14.3762	387.911	2.09614
465.0000	-14.0914	390.704	2.11997
464.5000	-13.4774	393.3	2.14196
464.0000	-12.5004	395.72	2.16232
463.5000	-11.8616	398.09	2.18212
463.0000	-11.3014	400.548	2.20252
462.5000	-10.6559	403.076	2.22335
462.0000	-10.0012	405.649	2.24439
461.5000	-8.88313	408.232	2.26536
461.0000	-8.01113	410.776	2.28586
460.5000	-7.42532	413.217	2.30538
460.0000	-6.42868	415.54	2.32383
459.5000	-5.34241	417.715	2.341
459.0000	-3.82484	419.841	2.35766
458.5000	-2.52352	421.952	2.3741
458.0000	-1.1625	424.128	2.39094
457.5000	0.510449	426.393	2.40834
