TITLE	wt
DATA TYPE	
ORIGIN	JASCO
OWNER	
DATE	16/02/05
TIME	12:56:08
SPECTROMETER/DATA SYSTEM	
LOCALE	1033
RESOLUTION	
DELTAX	-0.5
XUNITS	NANOMETERS
YUNITS	CD [mdeg]
Y2UNITS	HT [V]
Y3UNITS	ABSORBANCE
FIRSTX	  750.0000
LASTX	  350.0000
NPOINTS	     801
FIRSTY	    -5.70963
MAXY	    39.56944
MINY	   -20.79123
XYDATA
750.0000	-5.70963	299.45	1.24579
749.5000	-5.71849	299.171	1.24282
749.0000	-5.75718	298.852	1.23942
748.5000	-5.73771	298.48	1.23544
748.0000	-5.7023	298.054	1.23089
747.5000	-5.70151	297.597	1.226
747.0000	-5.75782	297.089	1.22056
746.5000	-5.8337	296.585	1.21516
746.0000	-5.80373	296.087	1.20982
745.5000	-5.68259	295.615	1.20474
745.0000	-5.6421	295.185	1.20012
744.5000	-5.48954	294.798	1.19596
744.0000	-5.42932	294.463	1.19235
743.5000	-5.30962	294.207	1.18959
743.0000	-5.27214	293.988	1.18723
742.5000	-5.33158	293.804	1.18524
742.0000	-5.38052	293.628	1.18334
741.5000	-5.43275	293.437	1.18128
741.0000	-5.49485	293.203	1.17876
740.5000	-5.63587	292.891	1.17538
740.0000	-5.64099	292.488	1.17102
739.5000	-5.64709	291.988	1.16561
739.0000	-5.63554	291.374	1.15895
738.5000	-5.60187	290.652	1.15111
738.0000	-5.56681	289.855	1.14245
737.5000	-5.41664	289.007	1.1332
737.0000	-5.36165	288.278	1.12525
736.5000	-5.34624	287.676	1.11868
736.0000	-5.24069	287.252	1.11403
735.5000	-5.18119	287.024	1.11154
735.0000	-5.07345	286.99	1.11117
734.5000	-5.07379	287.064	1.11198
734.0000	-5.04195	287.269	1.11422
733.5000	-5.06072	287.532	1.1171
733.0000	-5.10659	287.793	1.11995
732.5000	-5.18394	288.017	1.1224
732.0000	-5.1949	288.21	1.12451
731.5000	-5.15133	288.34	1.12594
731.0000	-5.07888	288.477	1.12742
730.5000	-4.90188	288.641	1.12921
730.0000	-4.77863	288.791	1.13085
729.5000	-4.72629	288.934	1.13241
729.0000	-4.58004	289.058	1.13376
728.5000	-4.47052	289.096	1.13417
728.0000	-4.52393	289.079	1.134
727.5000	-4.6575	289.048	1.13366
727.0000	-4.69413	288.973	1.13284
726.5000	-4.63147	288.854	1.13154
726.0000	-4.63302	288.686	1.12971
725.5000	-4.744	288.406	1.12665
725.0000	-4.68839	288.144	1.12379
724.5000	-4.63151	287.881	1.12091
724.0000	-4.6154	287.567	1.11748
723.5000	-4.63633	287.218	1.11366
723.0000	-4.56184	286.837	1.10949
722.5000	-4.50713	286.324	1.10387
722.0000	-4.42195	285.867	1.09885
721.5000	-4.4419	285.393	1.09365
721.0000	-4.42306	284.92	1.08844
720.5000	-4.44854	284.447	1.08324
720.0000	-4.45978	283.962	1.0779
719.5000	-4.47892	283.406	1.07176
719.0000	-4.45315	282.978	1.06704
718.5000	-4.49929	282.569	1.06252
718.0000	-4.56929	282.19	1.05832
717.5000	-4.57856	281.839	1.05444
717.0000	-4.56017	281.434	1.04995
716.5000	-4.54788	281.11	1.04636
716.0000	-4.53926	280.917	1.04422
715.5000	-4.56254	280.79	1.04281
715.0000	-4.49012	280.746	1.04232
714.5000	-4.4248	280.763	1.04251
714.0000	-4.38253	280.782	1.04272
713.5000	-4.28265	280.98	1.04491
713.0000	-4.29925	281.221	1.0476
712.5000	-4.32263	281.479	1.05045
712.0000	-4.30818	281.75	1.05346
711.5000	-4.33032	281.926	1.05541
711.0000	-4.25384	282.107	1.05741
710.5000	-4.19218	282.334	1.05992
710.0000	-4.16547	282.537	1.06217
709.5000	-4.19905	282.718	1.06416
709.0000	-4.20916	282.834	1.06545
708.5000	-4.28535	282.904	1.06622
708.0000	-4.31251	283.059	1.06793
707.5000	-4.4557	283.21	1.0696
707.0000	-4.63181	283.331	1.07093
706.5000	-4.77506	283.395	1.07164
706.0000	-4.81936	283.395	1.07164
705.5000	-4.80988	283.479	1.07256
705.0000	-4.89806	283.577	1.07365
704.5000	-5.10458	283.684	1.07483
704.0000	-5.24343	283.759	1.07565
703.5000	-5.3866	283.797	1.07607
703.0000	-5.57168	283.94	1.07765
702.5000	-5.77787	284.133	1.07978
702.0000	-5.96686	284.35	1.08217
701.5000	-6.13133	284.555	1.08443
701.0000	-6.29575	284.73	1.08635
700.5000	-6.44621	285.008	1.08941
700.0000	-6.60103	285.361	1.0933
699.5000	-6.78851	285.761	1.09769
699.0000	-7.07831	286.169	1.10217
698.5000	-7.45355	286.559	1.10644
698.0000	-7.75407	287.095	1.11232
697.5000	-8.03876	287.734	1.11931
697.0000	-8.28183	288.422	1.12683
696.5000	-8.53554	289.087	1.13409
696.0000	-8.88078	289.771	1.14153
695.5000	-9.10707	290.607	1.15062
695.0000	-9.32974	291.558	1.16095
694.5000	-9.54647	292.584	1.17206
694.0000	-9.83632	293.585	1.18287
693.5000	-10.1413	294.632	1.19417
693.0000	-10.523	295.903	1.20785
692.5000	-10.9367	297.319	1.22303
692.0000	-11.3403	298.833	1.23921
691.5000	-11.7541	300.341	1.25528
691.0000	-12.3742	302.007	1.27297
690.5000	-13.0052	303.97	1.29372
690.0000	-13.5206	306.067	1.3158
689.5000	-14.0359	308.236	1.33852
689.0000	-14.4142	310.445	1.36154
688.5000	-15.0073	312.772	1.38568
688.0000	-15.7487	315.226	1.41099
687.5000	-16.2555	317.734	1.4367
687.0000	-16.9355	320.24	1.46225
686.5000	-17.4856	322.955	1.48977
686.0000	-18.1525	325.873	1.51915
685.5000	-18.8577	329.001	1.55042
685.0000	-19.4397	332.344	1.58358
684.5000	-19.6653	335.928	1.61884
684.0000	-19.8479	339.795	1.65654
683.5000	-20.1611	343.968	1.69684
683.0000	-20.5233	348.294	1.73817
682.5000	-20.6228	352.619	1.77905
682.0000	-20.7145	357.087	1.82082
681.5000	-20.6222	361.749	1.8639
681.0000	-20.7783	366.442	1.90675
680.5000	-20.7912	371.053	1.94834
680.0000	-20.3662	375.524	1.98819
679.5000	-19.8082	379.985	2.02749
679.0000	-19.3483	384.568	2.06736
678.5000	-18.6713	388.937	2.10491
678.0000	-18.3436	393.049	2.13985
677.5000	-17.3606	397.025	2.17324
677.0000	-16.4028	400.942	2.20578
676.5000	-15.3723	404.691	2.23657
676.0000	-14.5558	407.975	2.26328
675.5000	-14.0965	410.879	2.28668
675.0000	-13.3667	413.466	2.30737
674.5000	-12.5587	415.604	2.32435
674.0000	-12.0963	416.995	2.33533
673.5000	-11.6275	417.769	2.34142
673.0000	-11.5879	417.975	2.34304
672.5000	-11.137	417.656	2.34053
672.0000	-10.6631	416.561	2.3319
671.5000	-10.6787	414.798	2.31796
671.0000	-10.8371	412.493	2.29961
670.5000	-11.4497	409.724	2.2774
670.0000	-11.9492	406.254	2.24932
669.5000	-12.4782	402.223	2.21634
669.0000	-13.2729	397.807	2.17976
668.5000	-13.9632	393.134	2.14056
668.0000	-14.5455	388.057	2.09739
667.5000	-15.1321	382.748	2.05158
667.0000	-15.6057	377.403	2.0048
666.5000	-15.974	372.165	1.9583
666.0000	-16.3301	366.831	1.91028
665.5000	-16.2473	361.43	1.86097
665.0000	-16.1839	356.177	1.81236
664.5000	-15.8943	351.163	1.76534
664.0000	-15.4519	346.164	1.71787
663.5000	-15.1353	341.286	1.67099
663.0000	-14.5569	336.606	1.62548
662.5000	-13.9694	332.279	1.58294
662.0000	-13.4336	328.136	1.5418
661.5000	-12.9908	324.223	1.50256
661.0000	-12.5465	320.56	1.46551
660.5000	-12.0484	317.192	1.43116
660.0000	-11.5059	313.938	1.39772
659.5000	-11.1415	310.922	1.36651
659.0000	-10.8312	308.115	1.33725
658.5000	-10.3702	305.514	1.30999
658.0000	-9.90468	303.009	1.28357
657.5000	-9.32334	300.71	1.2592
657.0000	-8.97537	298.62	1.23694
656.5000	-8.57883	296.636	1.21571
656.0000	-8.05925	294.765	1.19561
655.5000	-7.54247	293.027	1.17685
655.0000	-7.04036	291.471	1.16001
654.5000	-6.65902	289.97	1.14369
654.0000	-6.4656	288.582	1.12857
653.5000	-6.07789	287.323	1.11481
653.0000	-5.89536	286.215	1.10267
652.5000	-5.85875	285.163	1.09112
652.0000	-5.73337	284.215	1.08069
651.5000	-5.62625	283.421	1.07193
651.0000	-5.46374	282.721	1.0642
650.5000	-5.27722	282.096	1.05729
650.0000	-5.1751	281.578	1.05154
649.5000	-4.94562	281.19	1.04725
649.0000	-4.69869	280.85	1.04347
648.5000	-4.68182	280.576	1.04043
648.0000	-4.63514	280.364	1.03808
647.5000	-4.51075	280.228	1.03657
647.0000	-4.44138	280.106	1.03522
646.5000	-4.31078	280.011	1.03416
646.0000	-4.32216	279.952	1.0335
645.5000	-4.21823	279.905	1.03298
645.0000	-4.17912	279.876	1.03266
644.5000	-4.21184	279.864	1.03253
644.0000	-4.19242	279.88	1.0327
643.5000	-4.26768	279.892	1.03283
643.0000	-4.34996	279.903	1.03295
642.5000	-4.38379	279.94	1.03337
642.0000	-4.42033	279.983	1.03385
641.5000	-4.21984	280.028	1.03435
641.0000	-4.20527	280.066	1.03477
640.5000	-4.16966	280.099	1.03514
640.0000	-4.06025	280.129	1.03546
639.5000	-3.93798	280.156	1.03577
639.0000	-3.80293	280.185	1.0361
638.5000	-3.68225	280.19	1.03615
638.0000	-3.63854	280.187	1.03611
637.5000	-3.49758	280.154	1.03575
637.0000	-3.36551	280.108	1.03524
636.5000	-3.28359	280.042	1.03451
636.0000	-3.23868	279.928	1.03323
635.5000	-3.20957	279.796	1.03177
635.0000	-3.26412	279.638	1.03001
634.5000	-3.28335	279.434	1.02774
634.0000	-3.34536	279.234	1.02552
633.5000	-3.25379	279.02	1.02313
633.0000	-3.17605	278.777	1.02043
632.5000	-3.0616	278.516	1.01751
632.0000	-3.01965	278.266	1.01473
631.5000	-2.91548	278.01	1.01186
631.0000	-2.84481	277.708	1.00787
630.5000	-2.73282	277.441	1.00441
630.0000	-2.79594	277.167	1.00085
629.5000	-2.79503	276.881	0.99715
629.0000	-2.80597	276.619	0.993743
628.5000	-2.77425	276.356	0.990343
628.0000	-2.75845	276.056	0.986449
627.5000	-2.78825	275.8	0.98312
627.0000	-2.79652	275.545	0.979818
626.5000	-2.76496	275.253	0.976027
626.0000	-2.75579	275.003	0.972794
625.5000	-2.76064	274.766	0.969718
625.0000	-2.81252	274.472	0.965896
624.5000	-2.88315	274.238	0.962865
624.0000	-2.88715	274.003	0.959814
623.5000	-2.96352	273.709	0.956006
623.0000	-3.08535	273.471	0.952922
622.5000	-3.11416	273.23	0.949797
622.0000	-3.15052	272.923	0.945817
621.5000	-3.12601	272.685	0.942728
621.0000	-3.21004	272.447	0.939641
620.5000	-3.21324	272.161	0.935932
620.0000	-3.29551	271.912	0.932702
619.5000	-3.28638	271.642	0.929196
619.0000	-3.31181	271.312	0.92492
618.5000	-3.31965	271.011	0.921011
618.0000	-3.22121	270.676	0.916666
617.5000	-3.17199	270.302	0.911813
617.0000	-3.12844	269.957	0.907341
616.5000	-3.03161	269.548	0.902036
616.0000	-3.02191	269.131	0.896631
615.5000	-2.97793	268.747	0.891647
615.0000	-2.98957	268.311	0.885997
614.5000	-2.95073	267.9	0.880667
614.0000	-2.86437	267.487	0.875307
613.5000	-2.78609	267.006	0.869063
613.0000	-2.68857	266.594	0.863721
612.5000	-2.58376	266.157	0.858059
612.0000	-2.42614	265.688	0.851967
611.5000	-2.42446	265.262	0.846443
611.0000	-2.42624	264.8	0.840451
610.5000	-2.4163	264.338	0.834468
610.0000	-2.40002	263.911	0.828931
609.5000	-2.35197	263.426	0.822631
609.0000	-2.30677	262.981	0.816866
608.5000	-2.32693	262.529	0.811006
608.0000	-2.17077	262.047	0.804749
607.5000	-2.05093	261.622	0.799234
607.0000	-1.97426	261.173	0.793417
606.5000	-1.90013	260.745	0.787858
606.0000	-1.82413	260.359	0.782853
605.5000	-1.71076	259.931	0.777304
605.0000	-1.65784	259.571	0.772631
604.5000	-1.67991	259.207	0.767912
604.0000	-1.63328	258.849	0.763278
603.5000	-1.46308	258.564	0.759569
603.0000	-1.36278	258.228	0.755216
602.5000	-1.27832	257.941	0.751495
602.0000	-1.15564	257.68	0.748105
601.5000	-1.03971	257.41	0.744603
601.0000	-0.88156	257.212	0.742045
600.5000	-0.715623	256.979	0.739019
600.0000	-0.634866	256.776	0.736387
599.5000	-0.427798	256.622	0.734382
599.0000	-0.230235	256.441	0.732034
598.5000	-0.0653793	256.324	0.730524
598.0000	0.0921097	256.165	0.728457
597.5000	0.208762	256.03	0.726704
597.0000	0.336543	255.919	0.725274
596.5000	0.43174	255.798	0.723698
596.0000	0.416164	255.713	0.7226
595.5000	0.383791	255.6	0.721126
595.0000	0.384631	255.502	0.719861
594.5000	0.471127	255.412	0.718697
594.0000	0.516042	255.314	0.717427
593.5000	0.527319	255.229	0.716314
593.0000	0.553209	255.107	0.714732
592.5000	0.579062	255.011	0.713488
592.0000	0.61795	254.889	0.711907
591.5000	0.706247	254.774	0.710417
591.0000	0.644015	254.651	0.708825
590.5000	0.603983	254.516	0.707076
590.0000	0.650259	254.403	0.705611
589.5000	0.745274	254.271	0.703901
589.0000	0.802106	254.145	0.702264
588.5000	0.828635	254.004	0.70043
588.0000	0.806302	253.864	0.698615
587.5000	0.819605	253.729	0.696868
587.0000	0.829652	253.589	0.695051
586.5000	0.817961	253.455	0.693305
586.0000	0.741469	253.308	0.6914
585.5000	0.648084	253.172	0.689636
585.0000	0.568919	253.029	0.687783
584.5000	0.587442	252.894	0.68603
584.0000	0.598961	252.732	0.683929
583.5000	0.52009	252.56	0.681702
583.0000	0.423553	252.387	0.679455
582.5000	0.363661	252.213	0.677202
582.0000	0.369939	252.024	0.674752
581.5000	0.356233	251.84	0.67236
581.0000	0.339561	251.649	0.669886
580.5000	0.377797	251.464	0.667485
580.0000	0.330426	251.263	0.664881
579.5000	0.415115	251.075	0.662449
579.0000	0.481677	250.878	0.659889
578.5000	0.457976	250.699	0.657565
578.0000	0.51441	250.504	0.655033
577.5000	0.49682	250.319	0.652641
577.0000	0.491307	250.135	0.650257
576.5000	0.530304	249.975	0.648179
576.0000	0.482755	249.81	0.646039
575.5000	0.437212	249.636	0.643784
575.0000	0.414662	249.481	0.641772
574.5000	0.323921	249.32	0.639681
574.0000	0.349916	249.18	0.63786
573.5000	0.398251	249.018	0.635763
573.0000	0.390112	248.889	0.634093
572.5000	0.408818	248.746	0.632234
572.0000	0.429578	248.632	0.630763
571.5000	0.511833	248.491	0.628929
571.0000	0.546346	248.4	0.627749
570.5000	0.51259	248.294	0.626367
570.0000	0.495737	248.233	0.625577
569.5000	0.519284	248.137	0.624334
569.0000	0.447726	248.088	0.623708
568.5000	0.438651	248.031	0.622966
568.0000	0.412828	248.013	0.622727
567.5000	0.446373	247.953	0.621949
567.0000	0.477766	247.917	0.621484
566.5000	0.467546	247.866	0.620823
566.0000	0.454236	247.857	0.620704
565.5000	0.454518	247.819	0.620213
565.0000	0.459549	247.801	0.619979
564.5000	0.459137	247.784	0.619759
564.0000	0.441579	247.8	0.619969
563.5000	0.417667	247.82	0.620223
563.0000	0.43299	247.851	0.62063
562.5000	0.50891	247.905	0.621328
562.0000	0.544757	247.967	0.622126
561.5000	0.539995	248.051	0.623217
561.0000	0.539043	248.132	0.624272
560.5000	0.491609	248.256	0.625885
560.0000	0.459496	248.355	0.627162
559.5000	0.441652	248.498	0.629022
559.0000	0.439938	248.625	0.630672
558.5000	0.397542	248.803	0.632969
558.0000	0.393988	248.975	0.63521
557.5000	0.411221	249.173	0.637775
557.0000	0.442197	249.378	0.640436
556.5000	0.487025	249.601	0.643327
556.0000	0.467856	249.841	0.646442
555.5000	0.475124	250.079	0.649528
555.0000	0.455264	250.351	0.653052
554.5000	0.478043	250.602	0.656312
554.0000	0.475815	250.898	0.660146
553.5000	0.473653	251.187	0.663897
553.0000	0.552679	251.487	0.667784
552.5000	0.626723	251.797	0.671803
552.0000	0.639682	252.098	0.675709
551.5000	0.674429	252.407	0.679721
551.0000	0.699619	252.711	0.683655
550.5000	0.793236	253.006	0.687493
550.0000	0.779553	253.291	0.691188
549.5000	0.676083	253.567	0.694763
549.0000	0.702245	253.83	0.698169
548.5000	0.760545	254.081	0.70143
548.0000	0.825369	254.326	0.704615
547.5000	0.799796	254.562	0.707663
547.0000	0.766107	254.8	0.710756
546.5000	0.805093	255.043	0.71391
546.0000	0.787297	255.288	0.717085
545.5000	0.790706	255.528	0.720193
545.0000	0.751514	255.763	0.723242
544.5000	0.723384	256.005	0.72639
544.0000	0.730569	256.251	0.729576
543.5000	0.796689	256.503	0.732846
543.0000	0.881235	256.754	0.736096
542.5000	0.855249	257.012	0.739445
542.0000	0.839838	257.281	0.742932
541.5000	0.821364	257.54	0.746291
541.0000	0.802823	257.796	0.749611
540.5000	0.835939	258.027	0.752607
540.0000	0.835452	258.233	0.755278
539.5000	0.954112	258.433	0.757879
539.0000	1.07211	258.596	0.759996
538.5000	1.1442	258.752	0.762009
538.0000	1.2412	258.914	0.764116
537.5000	1.27349	259.056	0.765962
537.0000	1.23781	259.189	0.767681
536.5000	1.17411	259.337	0.769603
536.0000	1.02902	259.477	0.77142
535.5000	0.981741	259.622	0.773301
535.0000	0.970827	259.771	0.775226
534.5000	0.965874	259.916	0.777117
534.0000	0.983977	260.078	0.779208
533.5000	1.02561	260.247	0.781406
533.0000	0.997757	260.41	0.783523
532.5000	0.97905	260.58	0.785727
532.0000	1.02377	260.757	0.788024
531.5000	1.03946	260.919	0.790113
531.0000	1.01646	261.1	0.792468
530.5000	0.968465	261.293	0.794972
530.0000	0.957481	261.476	0.797349
529.5000	0.91241	261.678	0.799965
529.0000	0.835031	261.903	0.802877
528.5000	0.743156	262.142	0.805977
528.0000	0.657733	262.385	0.809129
527.5000	0.580861	262.639	0.812424
527.0000	0.526195	262.898	0.815791
526.5000	0.441946	263.151	0.819072
526.0000	0.50533	263.428	0.822658
525.5000	0.412871	263.709	0.826305
525.0000	0.375815	263.982	0.829841
524.5000	0.290857	264.282	0.833741
524.0000	0.165192	264.6	0.837864
523.5000	0.0794189	264.924	0.842069
523.0000	-0.077684	265.259	0.846412
522.5000	-0.185413	265.603	0.850875
522.0000	-0.346001	265.954	0.855428
521.5000	-0.434755	266.321	0.86018
521.0000	-0.52261	266.687	0.864932
520.5000	-0.598705	267.055	0.869704
520.0000	-0.722165	267.445	0.874761
519.5000	-0.79429	267.84	0.879889
519.0000	-0.915181	268.261	0.88535
518.5000	-0.985481	268.674	0.890703
518.0000	-1.16187	269.085	0.89603
517.5000	-1.17129	269.509	0.901535
517.0000	-1.21774	269.939	0.907107
516.5000	-1.31281	270.366	0.912647
516.0000	-1.44336	270.796	0.91822
515.5000	-1.54206	271.23	0.923851
515.0000	-1.68512	271.718	0.930183
514.5000	-1.85336	272.21	0.936569
514.0000	-2.01064	272.729	0.943294
513.5000	-2.14218	273.264	0.950235
513.0000	-2.33114	273.822	0.957469
512.5000	-2.50467	274.411	0.965111
512.0000	-2.73261	274.989	0.972608
511.5000	-2.80431	275.562	0.980034
511.0000	-2.91008	276.134	0.987458
510.5000	-3.09455	276.699	0.994791
510.0000	-3.27474	277.281	1.00234
509.5000	-3.45162	277.847	1.00967
509.0000	-3.6082	278.393	1.01614
508.5000	-3.86378	278.94	1.02224
508.0000	-4.08391	279.485	1.0283
507.5000	-4.43274	280.029	1.03436
507.0000	-4.73201	280.57	1.04036
506.5000	-5.00887	281.11	1.04636
506.0000	-5.32859	281.639	1.05222
505.5000	-5.56077	282.189	1.05831
505.0000	-5.65487	282.761	1.06464
504.5000	-5.93521	283.355	1.0712
504.0000	-6.15941	283.985	1.07815
503.5000	-6.35433	284.63	1.08526
503.0000	-6.55445	285.302	1.09264
502.5000	-6.80239	285.979	1.10008
502.0000	-7.10254	286.66	1.10756
501.5000	-7.38967	287.339	1.11498
501.0000	-7.69466	288.011	1.12233
500.5000	-7.98578	288.664	1.12946
500.0000	-8.2729	289.299	1.13639
499.5000	-8.64145	289.913	1.14308
499.0000	-8.97475	290.506	1.14953
498.5000	-9.3758	291.053	1.15547
498.0000	-9.76416	291.557	1.16094
497.5000	-10.1548	291.99	1.16563
497.0000	-10.4953	292.357	1.1696
496.5000	-10.9634	292.626	1.17252
496.0000	-11.4273	292.794	1.17433
495.5000	-11.8269	292.868	1.17513
495.0000	-12.2651	292.887	1.17534
494.5000	-12.7121	292.88	1.17526
494.0000	-13.082	292.909	1.17557
493.5000	-13.454	293.022	1.17679
493.0000	-13.6818	293.292	1.17971
492.5000	-13.9583	293.733	1.18448
492.0000	-14.2924	294.326	1.19087
491.5000	-14.6535	295.015	1.19829
491.0000	-14.8991	295.74	1.20609
490.5000	-15.1203	296.437	1.21357
490.0000	-15.3759	297.029	1.21993
489.5000	-15.8385	297.444	1.22437
489.0000	-16.2657	297.688	1.22698
488.5000	-16.5763	297.742	1.22756
488.0000	-16.8893	297.632	1.22637
487.5000	-17.2132	297.361	1.22348
487.0000	-17.7438	296.957	1.21915
486.5000	-18.0805	296.441	1.21362
486.0000	-18.2932	295.846	1.20723
485.5000	-18.4596	295.193	1.20021
485.0000	-18.7342	294.536	1.19314
484.5000	-19.0399	293.927	1.18657
484.0000	-19.3716	293.407	1.18095
483.5000	-19.5819	293.044	1.17704
483.0000	-19.8129	292.876	1.17522
482.5000	-19.8059	292.943	1.17594
482.0000	-19.9837	293.242	1.17918
481.5000	-20.0658	293.737	1.18453
481.0000	-19.9981	294.39	1.19156
480.5000	-19.9065	295.158	1.19983
480.0000	-19.8595	295.958	1.20843
479.5000	-19.8146	296.732	1.21674
479.0000	-19.6987	297.431	1.22423
478.5000	-19.6075	298.017	1.2305
478.0000	-19.6469	298.454	1.23517
477.5000	-19.6952	298.712	1.23792
477.0000	-19.6928	298.807	1.23894
476.5000	-19.6049	298.781	1.23866
476.0000	-19.6636	298.682	1.2376
475.5000	-19.7566	298.585	1.23656
475.0000	-19.586	298.649	1.23725
474.5000	-19.4876	298.954	1.2405
474.0000	-19.3137	299.544	1.24679
473.5000	-19.1877	300.418	1.2561
473.0000	-18.9963	301.542	1.26803
472.5000	-18.8284	302.799	1.28136
472.0000	-18.6691	304.056	1.29464
471.5000	-18.6666	305.221	1.30691
471.0000	-18.5034	306.282	1.31805
470.5000	-18.4863	307.281	1.32853
470.0000	-18.4889	308.284	1.33902
469.5000	-18.4713	309.402	1.35069
469.0000	-18.3047	310.789	1.36512
468.5000	-18.1782	312.526	1.38314
468.0000	-17.932	314.601	1.40456
467.5000	-17.5833	316.975	1.42893
467.0000	-17.0029	319.517	1.4549
466.5000	-16.5027	322.131	1.48144
466.0000	-15.9963	324.656	1.50692
465.5000	-15.351	327.015	1.5306
465.0000	-14.7852	329.17	1.5521
464.5000	-14.1533	331.145	1.57171
464.0000	-13.717	332.973	1.58979
463.5000	-13.4047	334.77	1.60748
463.0000	-12.7454	336.64	1.62581
462.5000	-11.9876	338.597	1.6449
