TITLE	cm9
DATA TYPE	
ORIGIN	JASCO
OWNER	
DATE	16/02/04
TIME	18:43:24
SPECTROMETER/DATA SYSTEM	
LOCALE	1033
RESOLUTION	
DELTAX	-0.5
XUNITS	NANOMETERS
YUNITS	CD [mdeg]
Y2UNITS	HT [V]
Y3UNITS	ABSORBANCE
FIRSTX	  750.0000
LASTX	  350.0000
NPOINTS	     801
FIRSTY	    -4.43087
MAXY	    19.32213
MINY	   -11.50125
XYDATA
750.0000	-4.43087	303.311	1.28676
749.5000	-4.35348	302.997	1.28345
749.0000	-4.37437	302.627	1.27953
748.5000	-4.32109	302.188	1.27488
748.0000	-4.22004	301.708	1.2698
747.5000	-4.08393	301.22	1.26462
747.0000	-3.99764	300.693	1.25902
746.5000	-3.97512	300.174	1.2535
746.0000	-3.90033	299.67	1.24814
745.5000	-3.72778	299.209	1.24323
745.0000	-3.55277	298.807	1.23893
744.5000	-3.45102	298.46	1.23523
744.0000	-3.43342	298.15	1.23192
743.5000	-3.31148	297.92	1.22946
743.0000	-3.17591	297.736	1.22749
742.5000	-3.15179	297.567	1.22568
742.0000	-3.15914	297.395	1.22384
741.5000	-3.21517	297.184	1.22159
741.0000	-3.17842	296.91	1.21864
740.5000	-3.20105	296.539	1.21466
740.0000	-3.27476	296.064	1.20957
739.5000	-3.18339	295.47	1.20318
739.0000	-3.11297	294.774	1.1957
738.5000	-3.13393	293.989	1.18724
738.0000	-2.98968	293.17	1.1784
737.5000	-2.86597	292.348	1.16951
737.0000	-2.79828	291.698	1.16246
736.5000	-2.78963	291.223	1.15731
736.0000	-2.90057	290.948	1.15433
735.5000	-2.8181	290.873	1.15351
735.0000	-2.87731	290.974	1.15462
734.5000	-2.95835	291.151	1.15654
734.0000	-3.03916	291.421	1.15946
733.5000	-3.03246	291.719	1.16269
733.0000	-3.0591	291.995	1.16568
732.5000	-2.97458	292.232	1.16825
732.0000	-2.87273	292.431	1.17041
731.5000	-2.80107	292.579	1.17201
731.0000	-2.83924	292.736	1.1737
730.5000	-2.84531	292.911	1.1756
730.0000	-2.77107	293.075	1.17737
729.5000	-2.79679	293.21	1.17883
729.0000	-2.90848	293.319	1.18001
728.5000	-2.85276	293.348	1.18032
728.0000	-2.81088	293.314	1.17996
727.5000	-2.77539	293.266	1.17943
727.0000	-2.72483	293.178	1.17848
726.5000	-2.70716	293.033	1.17691
726.0000	-2.58788	292.84	1.17483
725.5000	-2.59439	292.534	1.17152
725.0000	-2.63203	292.235	1.16828
724.5000	-2.56539	291.944	1.16513
724.0000	-2.52851	291.604	1.16144
723.5000	-2.47423	291.225	1.15734
723.0000	-2.38712	290.821	1.15295
722.5000	-2.32111	290.294	1.14723
722.0000	-2.23391	289.829	1.14216
721.5000	-2.18375	289.355	1.13701
721.0000	-2.20877	288.881	1.13183
720.5000	-2.21259	288.413	1.12673
720.0000	-2.27435	287.942	1.12158
719.5000	-2.27451	287.405	1.11571
719.0000	-2.28748	287.003	1.11131
718.5000	-2.19198	286.609	1.10699
718.0000	-2.13971	286.255	1.10311
717.5000	-2.07722	285.934	1.09958
717.0000	-2.03682	285.58	1.0957
716.5000	-2.01623	285.314	1.09278
716.0000	-1.93214	285.185	1.09136
715.5000	-1.85836	285.144	1.09091
715.0000	-1.90892	285.191	1.09143
714.5000	-1.95069	285.305	1.09267
714.0000	-2.1109	285.414	1.09388
713.5000	-2.16971	285.69	1.09691
713.0000	-2.25647	286.006	1.10038
712.5000	-2.29048	286.334	1.10397
712.0000	-2.3325	286.662	1.10757
711.5000	-2.23734	286.885	1.11002
711.0000	-2.29301	287.119	1.11258
710.5000	-2.19355	287.394	1.11559
710.0000	-2.21062	287.643	1.11831
709.5000	-2.27296	287.868	1.12077
709.0000	-2.45356	288.016	1.12239
708.5000	-2.61712	288.12	1.12352
708.0000	-2.74403	288.313	1.12563
707.5000	-2.83624	288.482	1.12748
707.0000	-3.04837	288.633	1.12913
706.5000	-3.08179	288.738	1.13027
706.0000	-3.26719	288.767	1.13059
705.5000	-3.36324	288.895	1.13198
705.0000	-3.49724	289.051	1.13369
704.5000	-3.71234	289.212	1.13544
704.0000	-3.76104	289.352	1.13697
703.5000	-3.99314	289.456	1.1381
703.0000	-4.10074	289.671	1.14045
702.5000	-4.18673	289.944	1.14342
702.0000	-4.32735	290.232	1.14655
701.5000	-4.48289	290.513	1.1496
701.0000	-4.58992	290.77	1.1524
700.5000	-4.6673	291.131	1.15631
700.0000	-4.73981	291.568	1.16106
699.5000	-4.93693	292.043	1.16621
699.0000	-5.06418	292.525	1.17142
698.5000	-5.12726	292.99	1.17645
698.0000	-5.14742	293.595	1.18298
697.5000	-5.31753	294.296	1.19055
697.0000	-5.50166	295.04	1.19857
696.5000	-5.44209	295.749	1.20619
696.0000	-5.47385	296.478	1.21401
695.5000	-5.77254	297.347	1.22333
695.0000	-5.99842	298.312	1.23365
694.5000	-6.23771	299.336	1.24457
694.0000	-6.43577	300.32	1.25506
693.5000	-6.66766	301.338	1.26588
693.0000	-6.85237	302.56	1.27883
692.5000	-7.19844	303.891	1.29289
692.0000	-7.30903	305.314	1.30789
691.5000	-7.51925	306.695	1.32239
691.0000	-7.74011	308.175	1.33788
690.5000	-7.93956	309.879	1.35565
690.0000	-8.32649	311.665	1.37421
689.5000	-8.7479	313.442	1.3926
689.0000	-9.05291	315.176	1.41047
688.5000	-9.35869	316.958	1.42876
688.0000	-9.69292	318.807	1.44767
687.5000	-9.88178	320.667	1.46659
687.0000	-10.1115	322.461	1.48478
686.5000	-10.2844	324.377	1.50411
686.0000	-10.3365	326.456	1.52499
685.5000	-10.4986	328.675	1.54717
685.0000	-10.7982	331.01	1.57038
684.5000	-10.9108	333.443	1.59443
684.0000	-11.1496	336	1.61955
683.5000	-11.3623	338.684	1.64575
683.0000	-11.32	341.335	1.67146
682.5000	-11.5013	343.812	1.69534
682.0000	-11.3798	346.241	1.71861
681.5000	-11.1358	348.652	1.74157
681.0000	-11.1416	350.956	1.76338
680.5000	-10.8773	353.059	1.78319
680.0000	-10.8129	354.949	1.80089
679.5000	-10.6054	356.769	1.81786
679.0000	-10.2741	358.571	1.83459
678.5000	-9.77475	360.16	1.84928
678.0000	-9.6003	361.494	1.86156
677.5000	-9.11942	362.68	1.87245
677.0000	-8.58583	363.828	1.88295
676.5000	-8.10999	364.811	1.89192
676.0000	-7.72515	365.455	1.89778
675.5000	-7.64007	365.867	1.90153
675.0000	-7.77703	366.107	1.90371
674.5000	-7.71771	366.162	1.90421
674.0000	-7.68923	365.837	1.90126
673.5000	-7.77584	365.248	1.8959
673.0000	-7.95124	364.479	1.88889
672.5000	-7.98064	363.568	1.88057
672.0000	-7.91049	362.34	1.86932
671.5000	-8.0885	360.883	1.85594
671.0000	-8.25869	359.252	1.84089
670.5000	-8.65969	357.511	1.82476
670.0000	-8.96451	355.46	1.80566
669.5000	-9.34173	353.192	1.78443
669.0000	-9.95678	350.807	1.76198
668.5000	-10.2939	348.39	1.73908
668.0000	-10.5618	345.771	1.71411
667.5000	-10.7182	343.051	1.68802
667.0000	-10.9343	340.31	1.66154
666.5000	-10.9635	337.656	1.63573
666.0000	-10.9848	334.889	1.60865
665.5000	-11.0206	332.022	1.5804
665.0000	-11.1144	329.172	1.55213
664.5000	-11.0583	326.437	1.52481
664.0000	-11.0419	323.627	1.49655
663.5000	-10.9013	320.83	1.46826
663.0000	-10.6761	318.08	1.44024
662.5000	-10.3135	315.516	1.41396
662.0000	-9.67077	312.991	1.38795
661.5000	-9.10201	310.56	1.36274
661.0000	-8.53942	308.229	1.33844
660.5000	-8.01894	306.064	1.31577
660.0000	-7.60165	303.903	1.29302
659.5000	-7.27352	301.878	1.2716
659.0000	-6.79111	299.976	1.2514
658.5000	-6.34685	298.195	1.2324
658.0000	-6.02907	296.444	1.21365
657.5000	-5.66121	294.807	1.19606
657.0000	-5.40262	293.317	1.17999
656.5000	-5.0503	291.893	1.16458
656.0000	-4.79331	290.521	1.14969
655.5000	-4.62998	289.229	1.13563
655.0000	-4.41257	288.072	1.123
654.5000	-4.21644	286.933	1.11054
654.0000	-3.91854	285.867	1.09885
653.5000	-3.61161	284.894	1.08816
653.0000	-3.2936	284.048	1.07884
652.5000	-3.11055	283.248	1.07002
652.0000	-2.91635	282.543	1.06222
651.5000	-2.7251	281.968	1.05586
651.0000	-2.53951	281.473	1.05038
650.5000	-2.3883	281.035	1.04553
650.0000	-2.28087	280.686	1.04166
649.5000	-2.07788	280.452	1.03905
649.0000	-1.88909	280.231	1.03661
648.5000	-1.82907	280.063	1.03474
648.0000	-1.65073	279.946	1.03344
647.5000	-1.44203	279.887	1.03278
647.0000	-1.25732	279.832	1.03217
646.5000	-1.13464	279.783	1.03162
646.0000	-1.08714	279.76	1.03137
645.5000	-1.03964	279.731	1.03104
645.0000	-1.03977	279.715	1.03087
644.5000	-1.10325	279.719	1.03091
644.0000	-1.1297	279.731	1.03105
643.5000	-1.04419	279.727	1.03099
643.0000	-1.01859	279.726	1.03099
642.5000	-0.963527	279.736	1.0311
642.0000	-0.932306	279.738	1.03113
641.5000	-0.794783	279.735	1.03109
641.0000	-0.724965	279.713	1.03084
640.5000	-0.730142	279.694	1.03064
640.0000	-0.711266	279.668	1.03034
639.5000	-0.615459	279.625	1.02987
639.0000	-0.500392	279.589	1.02946
638.5000	-0.392828	279.533	1.02884
638.0000	-0.273412	279.458	1.02801
637.5000	-0.17664	279.363	1.02695
637.0000	-0.0767548	279.25	1.02569
636.5000	-0.0408112	279.12	1.02425
636.0000	-0.0150085	278.954	1.02239
635.5000	-0.00861206	278.767	1.02031
635.0000	-0.0436981	278.571	1.01812
634.5000	0.00175171	278.334	1.01549
634.0000	0.0986923	278.1	1.01287
633.5000	0.0500992	277.87	1.00998
633.0000	-0.00436859	277.615	1.00667
632.5000	-0.0480652	277.354	1.00328
632.0000	0.0724258	277.113	1.00016
631.5000	0.0963196	276.859	0.996858
631.0000	0.0636932	276.572	0.993133
630.5000	0.103993	276.311	0.989748
630.0000	0.194432	276.046	0.986322
629.5000	0.176752	275.768	0.982712
629.0000	0.0777603	275.515	0.97943
628.5000	-0.0146851	275.267	0.976209
628.0000	0.0128464	274.979	0.972471
627.5000	0.121149	274.74	0.969374
627.0000	0.135658	274.51	0.966398
626.5000	0.177719	274.244	0.962939
626.0000	0.355751	274.02	0.960037
625.5000	0.363133	273.794	0.957111
625.0000	0.373885	273.508	0.953398
624.5000	0.329008	273.288	0.950551
624.0000	0.27094	273.072	0.947749
623.5000	0.289113	272.791	0.944103
623.0000	0.345511	272.563	0.94114
622.5000	0.374901	272.332	0.938141
622.0000	0.380128	272.043	0.934392
621.5000	0.357225	271.824	0.931563
621.0000	0.369386	271.601	0.928667
620.5000	0.386125	271.327	0.925112
620.0000	0.376448	271.095	0.9221
619.5000	0.327724	270.848	0.918902
619.0000	0.328064	270.541	0.914914
618.5000	0.437456	270.264	0.911324
618.0000	0.5448	269.972	0.907537
617.5000	0.5742	269.636	0.903185
617.0000	0.616068	269.34	0.899337
616.5000	0.610171	268.987	0.894755
616.0000	0.587175	268.622	0.890028
615.5000	0.669783	268.303	0.885887
615.0000	0.685393	267.935	0.881114
614.5000	0.669731	267.574	0.876432
614.0000	0.778986	267.23	0.871967
613.5000	0.88351	266.804	0.866453
613.0000	0.979207	266.452	0.861888
612.5000	1.04963	266.091	0.857194
612.0000	1.13591	265.683	0.851907
611.5000	1.28707	265.326	0.847277
611.0000	1.44521	264.93	0.842147
610.5000	1.54943	264.547	0.837172
610.0000	1.60597	264.201	0.832689
609.5000	1.79408	263.79	0.827351
609.0000	2.01528	263.422	0.822581
608.5000	2.05649	263.048	0.817727
608.0000	2.18661	262.634	0.812368
607.5000	2.3103	262.282	0.807797
607.0000	2.45088	261.904	0.8029
606.5000	2.56884	261.546	0.798249
606.0000	2.63378	261.222	0.794045
605.5000	2.75094	260.857	0.789314
605.0000	2.88058	260.562	0.785491
604.5000	2.97188	260.269	0.781686
604.0000	3.13609	259.979	0.77793
603.5000	3.26652	259.754	0.775013
603.0000	3.40645	259.469	0.771309
602.5000	3.56756	259.242	0.768375
602.0000	3.68729	259.021	0.765501
601.5000	3.86565	258.791	0.762525
601.0000	4.04817	258.622	0.760324
600.5000	4.09234	258.4	0.757448
600.0000	4.16454	258.219	0.755099
599.5000	4.25572	258.075	0.753238
599.0000	4.41647	257.906	0.751037
598.5000	4.55194	257.8	0.749664
598.0000	4.70596	257.639	0.747578
597.5000	4.88014	257.5	0.745778
597.0000	5.03888	257.386	0.744299
596.5000	5.19889	257.252	0.742555
596.0000	5.30812	257.149	0.741226
595.5000	5.32025	257.014	0.739473
595.0000	5.33898	256.903	0.738037
594.5000	5.30631	256.791	0.736585
594.0000	5.32909	256.681	0.735153
593.5000	5.31114	256.588	0.733944
593.0000	5.3273	256.449	0.732142
592.5000	5.44835	256.346	0.730811
592.0000	5.54778	256.22	0.72917
591.5000	5.65164	256.099	0.727609
591.0000	5.72364	255.978	0.726034
590.5000	5.78816	255.835	0.724184
590.0000	5.89035	255.729	0.722804
589.5000	5.9032	255.603	0.721176
589.0000	5.81524	255.484	0.719621
588.5000	5.7327	255.351	0.717908
588.0000	5.66669	255.217	0.716168
587.5000	5.55267	255.091	0.714536
587.0000	5.54558	254.956	0.712782
586.5000	5.4288	254.818	0.710991
586.0000	5.46006	254.68	0.709201
585.5000	5.5395	254.553	0.707546
585.0000	5.52192	254.421	0.705838
584.5000	5.55576	254.288	0.70412
584.0000	5.59068	254.14	0.702197
583.5000	5.62299	253.986	0.700195
583.0000	5.64414	253.832	0.698203
582.5000	5.62766	253.678	0.696203
582.0000	5.63462	253.511	0.694036
581.5000	5.60337	253.344	0.691874
581.0000	5.5693	253.182	0.68977
580.5000	5.56063	253.024	0.687717
580.0000	5.57058	252.848	0.685437
579.5000	5.57747	252.691	0.6834
579.0000	5.61385	252.522	0.681214
578.5000	5.71053	252.371	0.679247
578.0000	5.83472	252.208	0.677134
577.5000	5.9181	252.06	0.675216
577.0000	5.94299	251.918	0.67338
576.5000	5.97666	251.79	0.671718
576.0000	5.98899	251.658	0.670009
575.5000	5.99334	251.514	0.668134
575.0000	5.89547	251.39	0.666534
574.5000	5.84011	251.258	0.664817
574.0000	5.84712	251.145	0.663352
573.5000	5.87753	251.015	0.661667
573.0000	5.86726	250.911	0.660318
572.5000	5.83774	250.792	0.658768
572.0000	5.80001	250.711	0.657716
571.5000	5.81227	250.598	0.656258
571.0000	5.88682	250.529	0.655366
570.5000	5.89532	250.448	0.654313
570.0000	5.98441	250.413	0.65386
569.5000	6.06563	250.35	0.653038
569.0000	6.1605	250.327	0.652745
568.5000	6.28302	250.292	0.652292
568.0000	6.38548	250.3	0.652385
567.5000	6.38825	250.274	0.652052
567.0000	6.42876	250.266	0.651955
566.5000	6.46014	250.232	0.651515
566.0000	6.46765	250.24	0.651618
565.5000	6.44648	250.222	0.651375
565.0000	6.4984	250.225	0.651421
564.5000	6.48845	250.217	0.651318
564.0000	6.53588	250.233	0.651527
563.5000	6.5485	250.243	0.651655
563.0000	6.60012	250.273	0.652037
562.5000	6.63759	250.321	0.65266
562.0000	6.69576	250.373	0.653334
561.5000	6.76071	250.452	0.654366
561.0000	6.84928	250.522	0.655269
560.5000	6.94664	250.643	0.656835
560.0000	7.06251	250.733	0.658003
559.5000	7.1479	250.856	0.659606
559.0000	7.2256	250.956	0.660905
558.5000	7.26893	251.097	0.662726
558.0000	7.28773	251.228	0.664433
557.5000	7.31366	251.381	0.66641
557.0000	7.33808	251.534	0.66839
556.5000	7.36354	251.694	0.670475
556.0000	7.50066	251.879	0.67287
555.5000	7.58297	252.065	0.675282
555.0000	7.59505	252.275	0.678008
554.5000	7.74158	252.463	0.68045
554.0000	7.82628	252.684	0.683315
553.5000	7.86664	252.892	0.686008
553.0000	7.8847	253.104	0.688762
552.5000	7.90263	253.314	0.691477
552.0000	7.93159	253.507	0.693988
551.5000	7.93642	253.711	0.69663
551.0000	7.91626	253.903	0.699124
550.5000	7.9342	254.092	0.701579
550.0000	7.91548	254.273	0.703915
549.5000	7.90497	254.446	0.706168
549.0000	7.90704	254.607	0.708259
548.5000	8.02949	254.761	0.710254
548.0000	8.16001	254.905	0.712123
547.5000	8.14388	255.037	0.713834
547.0000	8.18793	255.168	0.715529
546.5000	8.28573	255.304	0.717297
546.0000	8.35835	255.428	0.718903
545.5000	8.43235	255.554	0.72054
545.0000	8.34356	255.676	0.722117
544.5000	8.35429	255.797	0.723686
544.0000	8.4609	255.932	0.725439
543.5000	8.45207	256.069	0.727216
543.0000	8.37922	256.2	0.728917
542.5000	8.31493	256.346	0.730814
542.0000	8.33207	256.497	0.732761
541.5000	8.35285	256.635	0.734556
541.0000	8.32913	256.774	0.73636
540.5000	8.32219	256.888	0.737837
540.0000	8.28494	256.979	0.739019
539.5000	8.26686	257.067	0.740158
539.0000	8.2344	257.12	0.740851
538.5000	8.13156	257.173	0.741531
538.0000	8.07943	257.233	0.742316
537.5000	8.06037	257.277	0.742886
537.0000	7.97186	257.314	0.743357
536.5000	8.01048	257.372	0.744112
536.0000	7.95231	257.418	0.744715
535.5000	7.95316	257.465	0.745323
535.0000	7.99422	257.523	0.746071
534.5000	7.96282	257.567	0.746641
534.0000	7.88183	257.613	0.747234
533.5000	7.88402	257.667	0.747943
533.0000	7.85418	257.701	0.748375
532.5000	7.85559	257.751	0.749031
532.0000	7.77292	257.803	0.749701
531.5000	7.69471	257.828	0.750028
531.0000	7.62773	257.879	0.750686
530.5000	7.53538	257.941	0.75149
530.0000	7.47313	257.995	0.752189
529.5000	7.42124	258.066	0.75312
529.0000	7.32658	258.145	0.754137
528.5000	7.32778	258.231	0.755257
528.0000	7.2548	258.311	0.756295
527.5000	7.23702	258.398	0.757428
527.0000	7.1903	258.492	0.758635
526.5000	7.0982	258.566	0.759607
526.0000	7.05633	258.668	0.76092
525.5000	6.93514	258.773	0.762283
525.0000	6.81452	258.874	0.763595
524.5000	6.71665	258.999	0.765221
524.0000	6.58483	259.134	0.766969
523.5000	6.445	259.266	0.768685
523.0000	6.34013	259.403	0.770452
522.5000	6.19308	259.539	0.772226
522.0000	6.12325	259.677	0.774011
521.5000	6.04892	259.819	0.775852
521.0000	5.95236	259.962	0.777701
520.5000	5.86768	260.102	0.779526
520.0000	5.70631	260.252	0.781467
519.5000	5.60534	260.407	0.783473
519.0000	5.50604	260.569	0.785586
518.5000	5.43507	260.729	0.787658
518.0000	5.30707	260.88	0.789614
517.5000	5.1967	261.034	0.791608
517.0000	5.01898	261.189	0.793616
516.5000	4.94123	261.341	0.795596
516.0000	4.72325	261.499	0.797637
515.5000	4.5227	261.666	0.799804
515.0000	4.36354	261.864	0.802372
514.5000	4.24612	262.07	0.805044
514.0000	4.17437	262.301	0.808049
513.5000	4.06466	262.543	0.811185
513.0000	3.96745	262.79	0.814383
512.5000	3.89208	263.051	0.817772
512.0000	3.87091	263.296	0.820947
511.5000	3.79114	263.527	0.823946
511.0000	3.61318	263.758	0.826938
510.5000	3.47204	263.977	0.829785
510.0000	3.28852	264.205	0.832734
509.5000	3.14277	264.423	0.835569
509.0000	3.02799	264.621	0.838137
508.5000	2.81024	264.824	0.840764
508.0000	2.66744	265.023	0.843347
507.5000	2.56385	265.218	0.845872
507.0000	2.41662	265.404	0.848285
506.5000	2.23267	265.581	0.850581
506.0000	2.05562	265.758	0.85288
505.5000	1.78817	265.936	0.855187
505.0000	1.60661	266.124	0.857634
504.5000	1.42931	266.331	0.860311
504.0000	1.13295	266.556	0.863232
503.5000	1.02129	266.801	0.866413
503.0000	0.855005	267.058	0.869739
502.5000	0.645239	267.301	0.872897
502.0000	0.487299	267.538	0.875967
501.5000	0.277721	267.773	0.87901
501.0000	0.051088	267.991	0.881838
500.5000	-0.106839	268.187	0.884388
500.0000	-0.338419	268.344	0.886417
499.5000	-0.54848	268.478	0.88816
499.0000	-0.833243	268.584	0.88954
498.5000	-1.04593	268.641	0.890271
498.0000	-1.43121	268.644	0.89031
497.5000	-1.67393	268.581	0.889496
497.0000	-2.02407	268.448	0.887768
496.5000	-2.28821	268.232	0.884972
496.0000	-2.45183	267.922	0.880951
495.5000	-2.77812	267.539	0.875979
495.0000	-3.09613	267.12	0.870553
494.5000	-3.26535	266.707	0.865189
494.0000	-3.49946	266.361	0.860698
493.5000	-3.67855	266.136	0.857789
493.0000	-4.01964	266.079	0.85705
492.5000	-4.3187	266.195	0.858546
492.0000	-4.56973	266.452	0.861887
491.5000	-4.78371	266.813	0.866566
491.0000	-4.96436	267.202	0.871608
490.5000	-5.19632	267.557	0.876208
490.0000	-5.37854	267.826	0.879705
489.5000	-5.56699	267.949	0.8813
489.0000	-5.70295	267.939	0.881175
488.5000	-5.86893	267.791	0.879253
488.0000	-6.13816	267.513	0.875643
487.5000	-6.40375	267.119	0.87053
487.0000	-6.61706	266.623	0.864103
486.5000	-6.85613	266.044	0.856595
486.0000	-7.03569	265.425	0.848567
485.5000	-7.29022	264.775	0.840134
485.0000	-7.45233	264.143	0.831934
484.5000	-7.5249	263.583	0.824675
484.0000	-7.6008	263.14	0.818921
483.5000	-7.67955	262.842	0.81506
483.0000	-7.75287	262.729	0.813599
482.5000	-7.7558	262.819	0.814764
482.0000	-7.77636	263.101	0.818422
481.5000	-7.7642	263.537	0.824079
481.0000	-7.73888	264.074	0.831037
480.5000	-7.79932	264.657	0.838605
480.0000	-7.85114	265.231	0.84605
479.5000	-7.83692	265.739	0.852635
479.0000	-7.75614	266.124	0.857629
478.5000	-7.67765	266.37	0.860813
478.0000	-7.60975	266.43	0.861602
477.5000	-7.66228	266.278	0.859623
477.0000	-7.62253	265.946	0.855322
476.5000	-7.47317	265.464	0.849063
476.0000	-7.44646	264.903	0.841786
475.5000	-7.44152	264.356	0.834699
475.0000	-7.30864	263.948	0.829409
474.5000	-7.17718	263.738	0.826682
474.0000	-7.00101	263.76	0.826962
473.5000	-6.80931	263.991	0.829967
473.0000	-6.78694	264.353	0.83466
472.5000	-6.69115	264.742	0.839708
472.0000	-6.65585	265.035	0.843506
471.5000	-6.59454	265.198	0.845614
471.0000	-6.4672	265.242	0.846184
470.5000	-6.38455	265.225	0.845963
470.0000	-6.29639	265.235	0.8461
469.5000	-6.10786	265.401	0.848249
469.0000	-5.92382	265.83	0.853816
468.5000	-5.74823	266.57	0.863416
468.0000	-5.70265	267.582	0.876537
467.5000	-5.57062	268.806	0.89242
467.0000	-5.40286	270.123	0.909501
466.5000	-5.18907	271.434	0.926501
466.0000	-4.90051	272.616	0.941826
465.5000	-4.64062	273.609	0.954711
465.0000	-4.31477	274.424	0.96528
464.5000	-3.90498	275.102	0.974069
464.0000	-3.56864	275.7	0.981832
463.5000	-3.18648	276.311	0.989754
463.0000	-2.89181	276.996	0.998635
462.5000	-2.50619	277.771	1.00868
462.0000	-2.16457	278.591	1.01835
461.5000	-1.82107	279.43	1.02769
461.0000	-1.46282	280.242	1.03673
